WORKSHOP 3 EXPORTED DATA: [C:\Workshop 96\Data Manager\Sharan\Ti6242\Ti6242-2-Old-FS\Day 5 - 7 [Fractured].W02 - 3]
*************************************************************************************************
Source of data: ToolKit
WS3 File Version: 1.04
Number of bytes in subfile: 88113
Total number of data points: 7311
Test date: 27/11/2017
Test time: 11:25:22
Player Step: 1
Step Capture No: 1
Actuator: 2
*************************************************************************************************
Actuator: 1  Channel:0	 Actuator: 1  Channel:1	 Actuator: 1  Channel:2	 
Load Current (kN)	 Stroke Current (mm)	 TIME (S)	 
-0.06	 -0.34	 0.0000	 
-0.06	 -0.34	 0.1400	 
-0.06	 -0.34	 0.3280	 
-0.06	 -0.34	 0.4680	 
-0.06	 -0.34	 0.6090	 
-0.06	 -0.34	 0.7500	 
-0.06	 -0.34	 0.8900	 
-0.06	 -0.34	 1.0310	 
-0.05	 -0.34	 1.2030	 
-0.05	 -0.34	 1.3590	 
-0.06	 -0.34	 1.5150	 
0.72	 -0.32	 1.6560	 
3.46	 -0.25	 1.8120	 
6.49	 -0.03	 1.9530	 
9.30	 0.04	 2.1090	 
11.42	 0.10	 2.2500	 
14.25	 0.18	 2.4220	 
17.10	 0.27	 2.5620	 
17.77	 0.29	 2.7180	 
17.85	 0.30	 2.8590	 
17.81	 0.29	 3.0150	 
17.80	 0.29	 3.1560	 
17.80	 0.29	 3.3120	 
17.80	 0.30	 3.4530	 
17.81	 0.29	 3.6090	 
17.81	 0.30	 3.7500	 
17.82	 0.30	 3.9060	 
17.82	 0.29	 4.0470	 
17.82	 0.29	 4.2180	 
17.82	 0.30	 4.3590	 
17.82	 0.30	 4.5150	 
17.82	 0.30	 4.6560	 
17.82	 0.30	 4.8120	 
17.82	 0.30	 4.9530	 
17.81	 0.29	 5.1090	 
17.81	 0.30	 5.2500	 
17.81	 0.30	 5.4220	 
17.81	 0.30	 5.5620	 
17.81	 0.30	 5.7180	 
17.81	 0.30	 5.8590	 
17.81	 0.30	 6.0310	 
17.80	 0.30	 6.1720	 
17.80	 0.30	 6.3430	 
17.80	 0.30	 6.4840	 
17.80	 0.30	 6.6400	 
17.80	 0.30	 6.7810	 
17.80	 0.30	 6.9530	 
17.80	 0.30	 7.0930	 
17.80	 0.30	 7.2500	 
17.80	 0.30	 7.3900	 
17.80	 0.30	 7.5470	 
17.79	 0.30	 7.6870	 
17.79	 0.30	 7.8430	 
17.79	 0.30	 7.9840	 
17.79	 0.30	 8.1400	 
17.79	 0.30	 8.2810	 
17.79	 0.30	 8.4530	 
17.79	 0.30	 8.5930	 
17.79	 0.30	 8.7650	 
17.79	 0.30	 8.9060	 
17.79	 0.30	 9.0780	 
17.79	 0.30	 9.2180	 
17.79	 0.30	 9.3900	 
17.79	 0.30	 9.5310	 
17.79	 0.30	 9.6870	 
17.79	 0.30	 9.8280	 
17.79	 0.30	 9.9840	 
17.79	 0.30	 10.1250	 
17.78	 0.30	 10.2970	 
17.79	 0.30	 10.4370	 
17.78	 0.30	 10.5930	 
17.78	 0.29	 10.7340	 
17.78	 0.30	 10.8900	 
17.78	 0.30	 11.0310	 
17.78	 0.30	 11.1870	 
17.75	 0.30	 11.3280	 
17.71	 0.30	 11.5000	 
17.66	 0.30	 11.6400	 
17.81	 0.31	 11.7970	 
17.81	 0.31	 11.9370	 
17.73	 0.31	 12.0930	 
17.69	 0.31	 12.2340	 
17.66	 0.32	 12.3900	 
17.80	 0.34	 12.5310	 
17.70	 0.34	 12.6870	 
17.77	 0.34	 12.8280	 
17.78	 0.35	 12.9840	 
17.78	 0.34	 13.1250	 
17.80	 0.37	 13.2970	 
17.71	 0.37	 13.4370	 
17.74	 0.37	 13.5930	 
17.77	 0.37	 13.7340	 
17.76	 0.37	 13.8900	 
17.74	 0.37	 14.0310	 
17.70	 0.46	 14.2030	 
17.77	 0.47	 14.3430	 
17.78	 0.47	 14.5150	 
17.76	 0.47	 14.6560	 
17.71	 0.47	 14.8280	 
17.76	 0.48	 14.9680	 
17.78	 0.48	 15.1250	 
17.78	 0.48	 15.2650	 
17.80	 0.48	 15.4220	 
17.79	 0.47	 15.5620	 
17.77	 0.48	 15.7340	 
17.76	 0.48	 15.8750	 
17.74	 0.48	 16.0310	 
17.79	 0.48	 16.1720	 
17.78	 0.47	 16.3280	 
17.76	 0.47	 16.4680	 
17.75	 0.47	 16.6400	 
17.75	 0.47	 16.7810	 
17.75	 0.48	 16.9530	 
17.75	 0.47	 17.0930	 
17.75	 0.47	 17.2650	 
17.75	 0.47	 17.4060	 
17.75	 0.48	 17.5620	 
17.75	 0.47	 17.7030	 
17.75	 0.47	 17.8590	 
17.75	 0.47	 18.0000	 
17.76	 0.47	 18.1560	 
17.76	 0.47	 18.2970	 
17.76	 0.47	 18.4530	 
17.76	 0.47	 18.5930	 
17.76	 0.47	 18.7500	 
17.76	 0.48	 18.8900	 
17.76	 0.47	 19.0470	 
17.76	 0.48	 19.1870	 
17.76	 0.47	 19.3430	 
17.75	 0.47	 19.4840	 
17.75	 0.47	 19.6400	 
17.75	 0.48	 19.7810	 
17.75	 0.48	 19.9370	 
17.75	 0.48	 20.0780	 
17.75	 0.47	 20.2500	 
17.75	 0.47	 20.3900	 
17.75	 0.47	 20.5470	 
17.75	 0.47	 20.6870	 
17.75	 0.48	 20.8430	 
17.75	 0.48	 20.9840	 
17.75	 0.47	 21.1400	 
17.75	 0.47	 21.2810	 
17.75	 0.48	 21.4370	 
17.75	 0.47	 21.5780	 
17.75	 0.47	 21.7500	 
17.75	 0.47	 21.8900	 
17.75	 0.48	 22.0470	 
17.75	 0.47	 22.1870	 
17.75	 0.47	 22.3430	 
17.75	 0.47	 22.4840	 
17.75	 0.47	 22.6400	 
17.75	 0.47	 22.7810	 
17.75	 0.48	 22.9530	 
17.75	 0.48	 23.0930	 
17.75	 0.47	 23.2650	 
17.75	 0.47	 23.4060	 
17.75	 0.48	 23.5780	 
17.75	 0.48	 23.7180	 
17.75	 0.48	 23.8750	 
17.75	 0.47	 24.0150	 
17.75	 0.47	 24.1720	 
17.75	 0.48	 24.3120	 
17.75	 0.47	 24.4840	 
17.75	 0.47	 24.6250	 
17.75	 0.47	 24.7970	 
17.75	 0.47	 24.9370	 
17.75	 0.47	 25.0930	 
17.75	 0.47	 25.2340	 
17.75	 0.47	 25.4060	 
17.75	 0.47	 25.5470	 
17.75	 0.47	 25.7180	 
17.75	 0.47	 25.8590	 
17.75	 0.47	 26.0310	 
17.75	 0.47	 26.1720	 
17.75	 0.47	 26.3430	 
17.75	 0.48	 26.4840	 
17.75	 0.48	 26.6400	 
17.75	 0.47	 26.7810	 
17.75	 0.47	 26.9370	 
17.75	 0.48	 27.0780	 
17.75	 0.47	 27.2500	 
17.75	 0.47	 27.3900	 
17.75	 0.47	 27.5470	 
17.75	 0.47	 27.6870	 
17.75	 0.48	 27.8430	 
17.75	 0.47	 27.9840	 
17.75	 0.47	 28.1400	 
17.75	 0.47	 28.2810	 
17.75	 0.47	 28.4370	 
17.75	 0.47	 28.5780	 
17.75	 0.47	 28.7340	 
17.75	 0.47	 28.8750	 
17.74	 0.48	 29.0470	 
17.75	 0.48	 29.1870	 
17.75	 0.48	 29.3430	 
17.75	 0.47	 29.4840	 
17.74	 0.47	 29.6400	 
17.74	 0.48	 29.7810	 
17.75	 0.47	 29.9530	 
17.74	 0.47	 30.0930	 
17.74	 0.47	 30.2650	 
17.74	 0.48	 30.4060	 
17.74	 0.47	 30.5780	 
17.74	 0.47	 30.7180	 
17.74	 0.47	 30.8750	 
17.74	 0.47	 31.0150	 
17.74	 0.47	 31.1720	 
17.74	 0.47	 31.3120	 
17.74	 0.47	 31.4680	 
17.74	 0.47	 31.6090	 
17.74	 0.47	 31.7650	 
17.74	 0.47	 31.9060	 
17.74	 0.47	 32.0620	 
17.74	 0.47	 32.2030	 
17.74	 0.47	 32.3590	 
17.74	 0.48	 32.5000	 
17.74	 0.47	 32.6560	 
17.74	 0.47	 32.7970	 
17.74	 0.47	 32.9530	 
17.74	 0.47	 33.0930	 
17.75	 0.47	 33.2650	 
17.75	 0.48	 33.4060	 
17.74	 0.47	 33.5780	 
17.74	 0.47	 33.7180	 
17.74	 0.47	 33.8900	 
17.74	 0.48	 34.0310	 
17.75	 0.48	 34.2030	 
17.75	 0.48	 34.3430	 
17.75	 0.47	 34.5150	 
17.75	 0.47	 34.6560	 
17.74	 0.48	 34.8120	 
17.74	 0.47	 34.9530	 
17.74	 0.47	 35.1090	 
17.74	 0.48	 35.2500	 
17.74	 0.47	 35.4220	 
17.74	 0.47	 35.5620	 
17.74	 0.47	 35.7180	 
17.74	 0.47	 35.8590	 
17.74	 0.47	 36.0150	 
17.74	 0.48	 36.1560	 
17.74	 0.47	 36.3280	 
17.74	 0.47	 36.4680	 
17.74	 0.48	 36.6250	 
17.74	 0.48	 36.7650	 
17.74	 0.47	 36.9220	 
17.74	 0.47	 37.0620	 
17.74	 0.47	 37.2180	 
17.74	 0.47	 37.3590	 
17.74	 0.48	 37.5150	 
17.74	 0.47	 37.6560	 
17.74	 0.47	 37.8280	 
17.74	 0.47	 37.9680	 
17.74	 0.47	 38.1400	 
17.74	 0.48	 38.2810	 
17.74	 0.48	 38.4530	 
17.74	 0.48	 38.5930	 
17.74	 0.47	 38.7500	 
17.74	 0.47	 38.8900	 
17.74	 0.48	 39.0470	 
17.74	 0.47	 39.1870	 
17.74	 0.47	 39.3430	 
17.74	 0.47	 39.4840	 
17.74	 0.47	 39.6400	 
17.74	 0.47	 39.7810	 
17.74	 0.47	 39.9530	 
17.74	 0.47	 40.0930	 
17.74	 0.47	 40.2650	 
17.74	 0.47	 40.4060	 
17.74	 0.47	 40.5620	 
17.74	 0.48	 40.7030	 
17.74	 0.47	 40.8750	 
17.74	 0.47	 41.0150	 
17.74	 0.48	 41.1720	 
17.74	 0.47	 41.3120	 
17.74	 0.47	 41.4680	 
17.74	 0.47	 41.6090	 
17.74	 0.47	 41.7650	 
17.74	 0.47	 41.9060	 
17.74	 0.47	 42.0620	 
17.74	 0.48	 42.2030	 
17.74	 0.47	 42.3590	 
17.74	 0.48	 42.5000	 
17.74	 0.48	 42.6720	 
17.74	 0.48	 42.8120	 
17.74	 0.47	 42.9840	 
17.74	 0.47	 43.1250	 
17.74	 0.47	 43.2970	 
17.74	 0.47	 43.4370	 
17.74	 0.47	 43.5930	 
17.74	 0.47	 43.7340	 
17.74	 0.47	 43.8900	 
17.74	 0.48	 44.0310	 
17.74	 0.47	 44.2030	 
17.74	 0.48	 44.3430	 
17.74	 0.48	 44.5150	 
17.74	 0.47	 44.6560	 
17.74	 0.48	 44.8280	 
17.74	 0.47	 44.9680	 
17.74	 0.48	 45.1400	 
17.74	 0.48	 45.2810	 
17.74	 0.48	 45.4530	 
17.74	 0.47	 45.5930	 
17.74	 0.48	 45.7500	 
17.74	 0.47	 45.8900	 
17.74	 0.48	 46.0470	 
17.74	 0.47	 46.1870	 
17.74	 0.47	 46.3430	 
17.74	 0.47	 46.4840	 
17.74	 0.48	 46.6400	 
17.74	 0.48	 46.7810	 
17.74	 0.47	 46.9370	 
17.74	 0.47	 47.0780	 
17.74	 0.47	 47.2500	 
17.74	 0.48	 47.3900	 
17.74	 0.47	 47.5470	 
17.74	 0.47	 47.6870	 
17.74	 0.47	 47.8430	 
17.74	 0.47	 47.9840	 
17.74	 0.47	 48.1400	 
17.74	 0.48	 48.2810	 
17.74	 0.47	 48.4530	 
17.74	 0.47	 48.5930	 
17.74	 0.47	 48.7650	 
17.74	 0.48	 48.9060	 
17.74	 0.47	 49.0780	 
17.74	 0.47	 49.2180	 
17.74	 0.48	 49.3900	 
17.74	 0.47	 49.5310	 
17.74	 0.47	 49.6870	 
17.74	 0.47	 49.8280	 
17.74	 0.48	 49.9840	 
17.74	 0.47	 50.1250	 
17.74	 0.47	 50.2970	 
17.74	 0.47	 50.4370	 
17.74	 0.47	 50.5930	 
17.74	 0.48	 50.7340	 
17.74	 0.47	 50.8900	 
17.74	 0.47	 51.0310	 
17.74	 0.47	 51.1870	 
17.74	 0.48	 51.3280	 
17.74	 0.47	 51.5000	 
17.74	 0.47	 51.6400	 
17.74	 0.47	 51.7970	 
17.74	 0.47	 51.9370	 
17.74	 0.48	 52.0930	 
17.74	 0.48	 52.2340	 
17.74	 0.47	 52.3900	 
17.74	 0.48	 52.5310	 
17.74	 0.47	 52.6870	 
17.74	 0.47	 52.8280	 
17.74	 0.47	 53.0000	 
17.74	 0.47	 53.1400	 
17.74	 0.48	 53.2970	 
17.74	 0.48	 53.4369	 
17.74	 0.47	 53.6090	 
17.74	 0.47	 53.7499	 
17.74	 0.48	 53.9220	 
17.74	 0.48	 54.0619	 
17.74	 0.48	 54.2340	 
17.74	 0.47	 54.3900	 
17.74	 0.47	 54.5470	 
17.74	 0.47	 54.6869	 
17.74	 0.47	 54.8280	 
17.74	 0.47	 54.9679	 
17.74	 0.47	 55.1400	 
17.74	 0.48	 55.2809	 
17.74	 0.47	 55.4530	 
17.74	 0.48	 55.5929	 
17.74	 0.47	 55.7650	 
17.74	 0.48	 55.9059	 
17.74	 0.48	 56.0780	 
17.74	 0.47	 56.2179	 
17.74	 0.47	 56.3900	 
17.74	 0.47	 56.5619	 
17.74	 0.47	 56.7179	 
17.74	 0.47	 56.8590	 
17.74	 0.47	 56.9999	 
17.74	 0.48	 57.1400	 
17.74	 0.47	 57.2809	 
17.74	 0.48	 57.4220	 
17.74	 0.47	 57.5929	 
17.74	 0.47	 57.7340	 
17.74	 0.47	 57.8900	 
17.73	 0.47	 58.0309	 
17.73	 0.47	 58.1869	 
17.73	 0.47	 58.3280	 
17.73	 0.48	 58.4999	 
17.73	 0.47	 58.6400	 
17.73	 0.47	 58.7970	 
17.73	 0.47	 58.9369	 
17.73	 0.47	 59.0929	 
17.73	 0.47	 59.2340	 
17.73	 0.48	 59.3900	 
17.73	 0.47	 59.5309	 
17.73	 0.47	 59.7030	 
17.73	 0.47	 59.8429	 
17.73	 0.47	 60.0150	 
17.73	 0.47	 60.1559	 
17.73	 0.48	 60.3280	 
17.73	 0.47	 60.4679	 
17.73	 0.47	 60.6249	 
17.73	 0.48	 60.7650	 
17.73	 0.48	 60.9220	 
17.73	 0.47	 61.0619	 
17.73	 0.47	 61.2179	 
17.73	 0.47	 61.3590	 
17.73	 0.48	 61.5150	 
17.73	 0.47	 61.6559	 
17.73	 0.47	 61.8119	 
17.73	 0.47	 61.9530	 
17.73	 0.47	 62.1249	 
17.73	 0.47	 62.2650	 
17.73	 0.47	 62.4220	 
17.73	 0.47	 62.5619	 
17.73	 0.48	 62.7179	 
17.73	 0.47	 62.8590	 
17.73	 0.47	 63.0150	 
17.73	 0.47	 63.1559	 
17.73	 0.47	 63.3119	 
17.73	 0.48	 63.4530	 
17.73	 0.47	 63.6090	 
17.73	 0.47	 63.7499	 
17.73	 0.47	 63.9059	 
17.73	 0.47	 64.0470	 
17.73	 0.47	 64.2179	 
17.73	 0.47	 64.3590	 
17.73	 0.48	 64.5150	 
17.73	 0.47	 64.6559	 
17.73	 0.48	 64.8280	 
17.73	 0.48	 64.9679	 
17.73	 0.47	 65.1400	 
17.73	 0.47	 65.2809	 
17.73	 0.47	 65.4369	 
17.73	 0.48	 65.5780	 
17.73	 0.48	 65.7340	 
17.73	 0.48	 65.8749	 
17.73	 0.48	 66.0309	 
17.73	 0.47	 66.1720	 
17.73	 0.47	 66.3429	 
17.73	 0.47	 66.4840	 
17.73	 0.48	 66.6400	 
17.73	 0.47	 66.7809	 
17.73	 0.47	 66.9369	 
17.73	 0.47	 67.0780	 
17.73	 0.47	 67.2499	 
17.73	 0.48	 67.3900	 
17.73	 0.48	 67.5470	 
17.73	 0.47	 67.6869	 
17.73	 0.47	 67.8429	 
17.73	 0.48	 67.9840	 
17.73	 0.47	 68.1400	 
17.73	 0.48	 68.2809	 
17.73	 0.47	 68.4530	 
17.73	 0.47	 68.5929	 
17.73	 0.47	 68.7650	 
17.73	 0.47	 68.9059	 
17.73	 0.48	 69.0780	 
17.73	 0.47	 69.2340	 
17.73	 0.47	 69.3900	 
17.73	 0.47	 69.5309	 
17.73	 0.47	 69.6720	 
17.73	 0.47	 69.8119	 
17.73	 0.47	 69.9679	 
17.73	 0.47	 70.1090	 
17.73	 0.47	 70.2650	 
17.73	 0.47	 70.4059	 
17.73	 0.47	 70.5780	 
17.73	 0.47	 70.7179	 
17.73	 0.47	 70.8900	 
17.73	 0.48	 71.0309	 
17.73	 0.47	 71.2030	 
17.73	 0.48	 71.3590	 
17.73	 0.47	 71.5150	 
17.73	 0.47	 71.6559	 
17.73	 0.47	 71.8280	 
17.73	 0.47	 71.9679	 
17.73	 0.47	 72.1400	 
17.73	 0.47	 72.2809	 
17.73	 0.47	 72.4679	 
17.73	 0.47	 72.6090	 
17.73	 0.47	 72.7650	 
17.73	 0.47	 72.9059	 
17.73	 0.47	 73.0780	 
17.73	 0.48	 73.2179	 
17.73	 0.47	 73.3900	 
17.73	 0.47	 73.5309	 
17.73	 0.47	 73.7030	 
17.73	 0.47	 73.8429	 
17.73	 0.48	 74.0150	 
17.73	 0.47	 74.1559	 
17.73	 0.47	 74.3280	 
17.73	 0.47	 74.4999	 
17.73	 0.47	 74.6400	 
17.73	 0.48	 74.7809	 
17.73	 0.47	 74.9369	 
17.73	 0.48	 75.0780	 
17.73	 0.47	 75.2340	 
17.73	 0.47	 75.3749	 
17.73	 0.47	 75.5470	 
17.73	 0.47	 75.6869	 
17.73	 0.48	 75.8280	 
17.74	 0.47	 75.9679	 
17.74	 0.47	 76.1249	 
17.74	 0.47	 76.2650	 
17.74	 0.47	 76.4220	 
17.73	 0.48	 76.5780	 
17.73	 0.47	 76.7340	 
17.73	 0.47	 76.8749	 
17.73	 0.47	 77.0150	 
17.73	 0.47	 77.1559	 
17.73	 0.47	 77.3280	 
17.73	 0.48	 77.4679	 
17.73	 0.47	 77.6400	 
17.73	 0.47	 77.7809	 
17.73	 0.47	 77.9530	 
17.73	 0.47	 78.0929	 
17.73	 0.48	 78.2650	 
17.73	 0.48	 78.4059	 
17.73	 0.47	 78.5619	 
17.73	 0.48	 78.7030	 
17.73	 0.47	 78.8590	 
17.73	 0.47	 78.9999	 
17.73	 0.47	 79.1720	 
17.73	 0.47	 79.3119	 
17.73	 0.47	 79.4679	 
17.73	 0.47	 79.6090	 
17.73	 0.47	 79.7650	 
17.73	 0.47	 79.9059	 
17.73	 0.47	 80.0780	 
17.73	 0.47	 80.2179	 
17.73	 0.47	 80.3900	 
17.73	 0.47	 80.5309	 
17.73	 0.48	 80.6869	 
17.73	 0.47	 80.8280	 
17.73	 0.48	 80.9999	 
17.73	 0.47	 81.1400	 
17.73	 0.47	 81.2970	 
17.73	 0.47	 81.4369	 
17.73	 0.48	 81.5929	 
17.73	 0.47	 81.7340	 
17.73	 0.47	 81.9059	 
17.73	 0.48	 82.0470	 
17.73	 0.47	 82.2179	 
17.74	 0.47	 82.3590	 
17.74	 0.47	 82.5150	 
17.74	 0.47	 82.6559	 
17.74	 0.47	 82.8119	 
17.74	 0.47	 82.9530	 
17.74	 0.47	 83.1090	 
17.74	 0.48	 83.2499	 
17.74	 0.48	 83.4220	 
17.74	 0.47	 83.5619	 
17.74	 0.47	 83.7179	 
17.74	 0.47	 83.8590	 
17.74	 0.47	 84.0150	 
17.74	 0.47	 84.1559	 
17.73	 0.47	 84.3280	 
17.74	 0.47	 84.4679	 
17.73	 0.47	 84.6400	 
17.73	 0.47	 84.7809	 
17.73	 0.47	 84.9530	 
17.73	 0.47	 85.1090	 
17.73	 0.47	 85.2650	 
17.73	 0.47	 85.4059	 
17.74	 0.47	 85.5619	 
17.74	 0.47	 85.7030	 
17.74	 0.47	 85.8749	 
17.74	 0.47	 86.0150	 
17.74	 0.47	 86.1720	 
17.73	 0.48	 86.3119	 
17.73	 0.47	 86.4679	 
17.73	 0.48	 86.6090	 
17.73	 0.47	 86.7650	 
17.74	 0.47	 86.9059	 
17.73	 0.47	 87.0619	 
17.73	 0.47	 87.2030	 
17.73	 0.48	 87.3590	 
17.73	 0.48	 87.4999	 
17.73	 0.47	 87.6720	 
17.73	 0.47	 87.8119	 
17.73	 0.47	 87.9679	 
17.73	 0.48	 88.1090	 
17.73	 0.48	 88.2650	 
17.73	 0.47	 88.4059	 
17.73	 0.47	 88.5780	 
17.73	 0.47	 88.7179	 
17.73	 0.47	 88.8900	 
17.73	 0.47	 89.0309	 
17.73	 0.47	 89.2030	 
17.73	 0.47	 89.3749	 
17.73	 0.47	 89.5150	 
17.73	 0.48	 89.6559	 
17.73	 0.47	 89.7970	 
17.73	 0.47	 89.9369	 
17.73	 0.47	 90.1090	 
17.73	 0.47	 90.2499	 
17.73	 0.47	 90.4059	 
17.73	 0.47	 90.5470	 
17.73	 0.48	 90.7030	 
17.73	 0.47	 90.8429	 
17.73	 0.47	 91.0150	 
17.73	 0.47	 91.1559	 
17.73	 0.47	 91.3280	 
17.73	 0.47	 91.4679	 
17.73	 0.47	 91.6249	 
17.73	 0.47	 91.7650	 
17.73	 0.47	 91.9220	 
17.73	 0.47	 92.0619	 
17.73	 0.47	 92.2179	 
17.73	 0.47	 92.3590	 
17.73	 0.47	 92.5150	 
17.73	 0.47	 92.6559	 
17.73	 0.47	 92.8119	 
17.73	 0.47	 92.9530	 
17.73	 0.48	 93.1090	 
17.73	 0.47	 93.2499	 
17.73	 0.47	 93.4220	 
17.73	 0.47	 93.5619	 
17.73	 0.48	 93.7179	 
17.73	 0.47	 93.8590	 
17.73	 0.47	 94.0150	 
17.73	 0.48	 94.1559	 
17.73	 0.47	 94.3119	 
17.73	 0.47	 94.4530	 
17.73	 0.47	 94.6090	 
17.73	 0.47	 94.7499	 
17.73	 0.47	 94.9220	 
17.73	 0.47	 95.0619	 
17.73	 0.47	 95.2179	 
17.73	 0.47	 95.3590	 
17.73	 0.47	 95.5150	 
17.73	 0.48	 95.6559	 
17.73	 0.47	 95.8119	 
17.73	 0.47	 95.9530	 
17.73	 0.47	 96.1249	 
17.73	 0.47	 96.2650	 
17.73	 0.47	 96.4220	 
17.73	 0.47	 96.5619	 
17.73	 0.47	 96.7179	 
17.73	 0.47	 96.8590	 
17.73	 0.47	 97.0150	 
17.73	 0.47	 97.1559	 
17.73	 0.48	 97.3280	 
17.73	 0.47	 97.4679	 
17.73	 0.47	 97.6400	 
17.73	 0.47	 97.7809	 
17.73	 0.47	 97.9530	 
17.73	 0.47	 98.0929	 
17.73	 0.48	 98.2499	 
17.73	 0.47	 98.3900	 
17.73	 0.47	 98.5470	 
17.73	 0.47	 98.6869	 
17.73	 0.47	 98.8590	 
17.73	 0.47	 98.9999	 
17.73	 0.47	 99.1559	 
17.73	 0.47	 99.2970	 
17.73	 0.47	 99.4530	 
17.73	 0.47	 99.5929	 
17.73	 0.47	 99.7650	 
17.73	 0.47	 99.9059	 
17.73	 0.47	 100.0619	 
17.73	 0.47	 100.2030	 
17.73	 0.47	 100.3590	 
17.73	 0.47	 100.4999	 
17.73	 0.47	 100.6559	 
17.73	 0.47	 100.7970	 
17.73	 0.47	 100.9679	 
17.73	 0.47	 101.1090	 
17.73	 0.47	 101.2650	 
17.73	 0.47	 101.4059	 
17.73	 0.47	 101.5619	 
17.73	 0.47	 101.7030	 
17.73	 0.47	 101.8590	 
17.73	 0.47	 101.9999	 
17.73	 0.48	 102.1720	 
17.73	 0.48	 102.3119	 
17.73	 0.47	 102.4679	 
17.73	 0.47	 102.6090	 
17.73	 0.47	 102.7650	 
17.73	 0.47	 102.9059	 
17.73	 0.47	 103.0619	 
17.73	 0.47	 103.2030	 
17.73	 0.47	 103.3749	 
17.73	 0.47	 103.5150	 
17.73	 0.47	 103.6720	 
17.73	 0.47	 103.8119	 
17.73	 0.47	 103.9679	 
17.73	 0.47	 104.1090	 
17.73	 0.47	 104.2650	 
17.73	 0.47	 104.4059	 
17.73	 0.47	 104.5619	 
17.73	 0.47	 104.7030	 
17.73	 0.47	 104.8749	 
17.73	 0.47	 105.0150	 
17.73	 0.47	 105.1720	 
17.73	 0.48	 105.3119	 
17.73	 0.48	 105.4679	 
17.73	 0.47	 105.6090	 
17.73	 0.47	 105.7650	 
17.73	 0.47	 105.9059	 
17.73	 0.47	 106.0780	 
17.73	 0.47	 106.2179	 
17.73	 0.47	 106.3900	 
17.73	 0.47	 106.5309	 
17.73	 0.47	 106.7030	 
17.73	 0.47	 106.8429	 
17.73	 0.48	 106.9999	 
17.73	 0.47	 107.1400	 
17.73	 0.48	 107.2970	 
17.73	 0.47	 107.4369	 
17.73	 0.47	 107.5929	 
17.73	 0.47	 107.7340	 
17.73	 0.47	 107.8900	 
17.73	 0.47	 108.0309	 
17.73	 0.47	 108.1869	 
17.73	 0.47	 108.3280	 
17.73	 0.47	 108.4999	 
17.73	 0.47	 108.6400	 
17.73	 0.47	 108.7970	 
17.73	 0.47	 108.9369	 
17.73	 0.47	 109.0929	 
17.73	 0.47	 109.2340	 
17.73	 0.47	 109.3900	 
17.73	 0.47	 109.5309	 
17.73	 0.47	 109.7030	 
17.73	 0.47	 109.8429	 
17.73	 0.47	 110.0150	 
17.73	 0.47	 110.1559	 
17.73	 0.47	 110.3280	 
17.73	 0.47	 110.4999	 
17.73	 0.47	 110.6400	 
17.73	 0.47	 110.7809	 
17.73	 0.47	 110.9369	 
17.73	 0.47	 111.0780	 
17.73	 0.48	 111.2340	 
17.73	 0.47	 111.3749	 
17.73	 0.47	 111.5470	 
17.73	 0.47	 111.6869	 
17.73	 0.47	 111.8429	 
17.73	 0.47	 111.9840	 
17.73	 0.47	 112.1400	 
17.73	 0.47	 112.2809	 
17.73	 0.47	 112.4530	 
17.73	 0.47	 112.5929	 
17.73	 0.47	 112.7499	 
17.73	 0.47	 112.8900	 
17.73	 0.47	 113.0470	 
17.73	 0.48	 113.1869	 
17.73	 0.47	 113.3429	 
17.73	 0.47	 113.4840	 
17.73	 0.47	 113.6400	 
17.73	 0.47	 113.7809	 
17.73	 0.47	 113.9369	 
17.73	 0.48	 114.0780	 
17.73	 0.47	 114.2499	 
17.73	 0.47	 114.3900	 
17.73	 0.48	 114.5470	 
17.73	 0.47	 114.6869	 
17.73	 0.47	 114.8429	 
17.73	 0.47	 114.9840	 
17.73	 0.47	 115.1400	 
17.73	 0.47	 115.2809	 
17.73	 0.47	 115.4530	 
17.73	 0.47	 115.5929	 
17.73	 0.48	 115.7499	 
17.73	 0.47	 115.8900	 
17.73	 0.47	 116.0470	 
17.73	 0.48	 116.1869	 
17.73	 0.47	 116.3429	 
17.73	 0.47	 116.4840	 
17.73	 0.47	 116.6400	 
17.73	 0.47	 116.7809	 
17.73	 0.47	 116.9530	 
17.74	 0.47	 117.0929	 
17.73	 0.47	 117.2650	 
17.73	 0.47	 117.4059	 
17.73	 0.47	 117.5619	 
17.73	 0.47	 117.7030	 
17.73	 0.47	 117.8749	 
17.73	 0.47	 118.0150	 
17.73	 0.47	 118.1720	 
17.73	 0.47	 118.3119	 
17.73	 0.47	 118.4679	 
17.73	 0.47	 118.6090	 
17.73	 0.47	 118.7650	 
17.73	 0.47	 118.9059	 
17.74	 0.47	 119.0780	 
17.73	 0.47	 119.2179	 
17.73	 0.47	 119.3900	 
17.74	 0.47	 119.5309	 
17.73	 0.47	 119.6869	 
17.73	 0.47	 119.8280	 
17.73	 0.47	 119.9840	 
17.73	 0.47	 120.1249	 
17.73	 0.47	 120.2970	 
17.73	 0.47	 120.4369	 
17.73	 0.47	 120.5929	 
17.73	 0.47	 120.7340	 
17.73	 0.47	 120.8900	 
17.73	 0.47	 121.0309	 
17.73	 0.47	 121.1869	 
17.73	 0.47	 121.3280	 
17.73	 0.48	 121.4999	 
17.73	 0.47	 121.6400	 
17.73	 0.47	 121.7970	 
17.73	 0.47	 121.9369	 
17.73	 0.48	 122.0929	 
16.26	 0.44	 122.2340	 
13.42	 0.38	 122.3900	 
10.56	 0.31	 122.5309	 
8.50	 0.27	 122.6869	 
5.62	 0.20	 122.8280	 
2.77	 0.14	 122.9840	 
0.67	 0.09	 123.1249	 
2.90	 0.13	 123.2970	 
5.02	 0.18	 123.4369	 
7.86	 0.24	 123.6090	 
10.70	 0.30	 123.7499	 
13.54	 0.37	 123.9220	 
16.44	 0.43	 124.0619	 
17.68	 0.46	 124.2340	 
17.76	 0.47	 124.3749	 
17.72	 0.47	 124.5309	 
17.71	 0.47	 124.6720	 
17.71	 0.47	 124.8280	 
17.72	 0.47	 124.9679	 
17.72	 0.47	 125.1400	 
17.72	 0.47	 125.2809	 
17.72	 0.46	 125.4369	 
17.72	 0.47	 125.5780	 
17.72	 0.47	 125.7340	 
17.72	 0.47	 125.8749	 
17.73	 0.46	 126.0309	 
17.73	 0.47	 126.1720	 
17.73	 0.47	 126.3429	 
17.73	 0.47	 126.4840	 
17.73	 0.47	 126.6559	 
17.73	 0.47	 126.7970	 
17.73	 0.47	 126.9679	 
17.73	 0.47	 127.1090	 
17.73	 0.47	 127.2650	 
17.73	 0.47	 127.4059	 
17.73	 0.47	 127.5619	 
17.73	 0.47	 127.7030	 
17.73	 0.47	 127.8749	 
17.73	 0.47	 128.0150	 
17.73	 0.47	 128.1720	 
17.73	 0.47	 128.3119	 
17.73	 0.47	 128.4679	 
17.73	 0.47	 128.6090	 
17.73	 0.47	 128.7650	 
17.73	 0.47	 128.9059	 
17.73	 0.47	 129.0780	 
17.73	 0.47	 129.2179	 
17.73	 0.47	 129.3900	 
17.73	 0.47	 129.5309	 
17.73	 0.47	 129.6869	 
17.73	 0.47	 129.8280	 
17.73	 0.47	 129.9999	 
17.73	 0.47	 130.1400	 
17.73	 0.47	 130.2970	 
17.73	 0.47	 130.4369	 
17.73	 0.47	 130.5929	 
17.74	 0.47	 130.7340	 
17.74	 0.47	 130.8900	 
17.74	 0.47	 131.0309	 
17.74	 0.47	 131.2030	 
17.74	 0.47	 131.3429	 
17.74	 0.47	 131.4999	 
17.74	 0.47	 131.6400	 
17.74	 0.47	 131.7970	 
17.74	 0.47	 131.9369	 
17.74	 0.47	 132.0929	 
17.74	 0.47	 132.2340	 
17.74	 0.47	 132.3900	 
17.74	 0.47	 132.5309	 
17.74	 0.47	 132.6869	 
17.74	 0.47	 132.8280	 
17.74	 0.47	 132.9999	 
17.74	 0.47	 133.1400	 
17.73	 0.47	 133.2970	 
17.73	 0.47	 133.4369	 
17.73	 0.47	 133.5929	 
17.73	 0.47	 133.7340	 
17.73	 0.47	 133.8900	 
17.73	 0.47	 134.0309	 
17.73	 0.47	 134.2030	 
17.73	 0.47	 134.3429	 
17.73	 0.47	 134.5150	 
17.73	 0.47	 134.6559	 
17.73	 0.47	 134.8280	 
17.73	 0.47	 134.9679	 
17.73	 0.47	 135.1400	 
17.73	 0.47	 135.2809	 
17.73	 0.47	 135.4369	 
17.73	 0.47	 135.5780	 
17.73	 0.47	 135.7340	 
17.73	 0.47	 135.8749	 
17.73	 0.47	 136.0309	 
17.73	 0.47	 136.1720	 
17.73	 0.47	 136.3429	 
17.73	 0.47	 136.4840	 
17.73	 0.47	 136.6400	 
17.73	 0.47	 136.7809	 
17.73	 0.47	 136.9530	 
17.73	 0.47	 137.0929	 
17.73	 0.47	 137.2650	 
17.74	 0.47	 137.4059	 
17.74	 0.47	 137.5619	 
17.74	 0.47	 137.7030	 
17.74	 0.47	 137.8590	 
17.74	 0.47	 137.9999	 
17.74	 0.47	 138.1559	 
17.74	 0.47	 138.2970	 
17.74	 0.47	 138.4679	 
17.74	 0.47	 138.6090	 
17.74	 0.47	 138.7809	 
17.73	 0.47	 138.9220	 
17.74	 0.47	 139.0929	 
17.74	 0.47	 139.2340	 
17.74	 0.47	 139.3900	 
17.74	 0.47	 139.5309	 
17.74	 0.47	 139.7030	 
17.74	 0.47	 139.8429	 
17.74	 0.47	 140.0150	 
17.74	 0.47	 140.1559	 
17.74	 0.47	 140.3280	 
17.74	 0.47	 140.4679	 
17.74	 0.47	 140.6400	 
17.74	 0.47	 140.7809	 
17.74	 0.47	 140.9530	 
17.74	 0.47	 141.0929	 
17.74	 0.47	 141.2650	 
17.74	 0.47	 141.4059	 
17.74	 0.47	 141.5619	 
17.74	 0.47	 141.7030	 
17.74	 0.47	 141.8590	 
17.74	 0.47	 141.9999	 
17.74	 0.47	 142.1720	 
17.74	 0.47	 142.3119	 
17.74	 0.47	 142.4679	 
17.74	 0.47	 142.6090	 
17.74	 0.47	 142.7650	 
17.74	 0.47	 142.9059	 
17.74	 0.47	 143.0780	 
17.74	 0.47	 143.2179	 
17.74	 0.47	 143.3900	 
17.74	 0.47	 143.5309	 
17.74	 0.47	 143.6869	 
17.74	 0.47	 143.8280	 
17.74	 0.47	 143.9999	 
17.74	 0.47	 144.1400	 
17.74	 0.47	 144.2970	 
17.74	 0.47	 144.4369	 
17.74	 0.47	 144.5929	 
17.74	 0.47	 144.7340	 
17.74	 0.47	 144.8900	 
17.74	 0.47	 145.0309	 
17.74	 0.47	 145.1869	 
17.74	 0.47	 145.3280	 
17.74	 0.47	 145.4999	 
17.74	 0.47	 145.6400	 
17.74	 0.47	 145.7970	 
17.74	 0.47	 145.9369	 
17.74	 0.47	 146.1090	 
17.74	 0.47	 146.2499	 
17.74	 0.47	 146.4059	 
17.74	 0.47	 146.5470	 
17.74	 0.47	 146.7030	 
17.74	 0.47	 146.8429	 
17.74	 0.47	 147.0150	 
17.74	 0.47	 147.1559	 
17.74	 0.47	 147.3280	 
17.74	 0.47	 147.4679	 
17.74	 0.47	 147.6400	 
17.74	 0.47	 147.7809	 
17.74	 0.47	 147.9530	 
17.74	 0.47	 148.0929	 
17.74	 0.47	 148.2650	 
17.74	 0.47	 148.4059	 
17.74	 0.47	 148.5619	 
17.74	 0.47	 148.7030	 
17.74	 0.47	 148.8590	 
17.74	 0.47	 148.9999	 
17.74	 0.47	 149.1559	 
17.74	 0.47	 149.2970	 
17.74	 0.47	 149.4679	 
17.74	 0.47	 149.6090	 
17.74	 0.47	 149.7650	 
17.74	 0.47	 149.9059	 
17.74	 0.47	 150.0619	 
17.74	 0.47	 150.2030	 
17.74	 0.47	 150.3749	 
17.74	 0.47	 150.5150	 
17.74	 0.47	 150.6720	 
17.74	 0.47	 150.8119	 
17.74	 0.47	 150.9679	 
17.74	 0.47	 151.1090	 
17.75	 0.47	 151.2650	 
17.74	 0.47	 151.4059	 
17.74	 0.47	 151.5780	 
17.74	 0.47	 151.7179	 
17.74	 0.47	 151.8900	 
17.74	 0.47	 152.0309	 
17.74	 0.47	 152.2030	 
17.74	 0.47	 152.3429	 
17.74	 0.47	 152.4999	 
17.74	 0.47	 152.6400	 
17.74	 0.47	 152.7970	 
17.74	 0.47	 152.9369	 
17.74	 0.47	 153.0929	 
17.74	 0.47	 153.2340	 
17.74	 0.47	 153.3900	 
17.75	 0.47	 153.5309	 
17.75	 0.47	 153.6869	 
17.75	 0.47	 153.8280	 
17.75	 0.47	 153.9999	 
17.75	 0.47	 154.1400	 
17.75	 0.47	 154.2970	 
17.75	 0.47	 154.4369	 
17.75	 0.47	 154.5929	 
17.75	 0.47	 154.7340	 
17.75	 0.47	 154.8900	 
17.75	 0.47	 155.0309	 
17.75	 0.47	 155.1869	 
17.75	 0.47	 155.3280	 
17.75	 0.47	 155.4840	 
17.75	 0.47	 155.6249	 
17.75	 0.47	 155.7809	 
17.75	 0.47	 155.9220	 
17.75	 0.47	 156.0929	 
17.75	 0.47	 156.2340	 
17.75	 0.47	 156.3900	 
17.75	 0.47	 156.5309	 
17.75	 0.47	 156.7030	 
17.75	 0.47	 156.8429	 
17.75	 0.47	 157.0150	 
17.75	 0.47	 157.1559	 
17.75	 0.47	 157.3119	 
17.75	 0.47	 157.4530	 
17.75	 0.47	 157.6090	 
17.75	 0.47	 157.7499	 
17.75	 0.47	 157.9059	 
17.75	 0.47	 158.0470	 
17.75	 0.47	 158.2179	 
17.75	 0.47	 158.3590	 
17.75	 0.47	 158.5150	 
17.75	 0.47	 158.6559	 
17.75	 0.47	 158.8119	 
17.75	 0.47	 158.9530	 
17.75	 0.47	 159.1090	 
17.75	 0.47	 159.2499	 
17.75	 0.47	 159.4059	 
17.75	 0.47	 159.5470	 
17.75	 0.47	 159.7179	 
17.75	 0.47	 159.8590	 
17.75	 0.47	 160.0150	 
17.75	 0.47	 160.1559	 
17.75	 0.47	 160.3280	 
17.75	 0.47	 160.4679	 
17.75	 0.47	 160.6400	 
17.75	 0.47	 160.7809	 
17.75	 0.47	 160.9530	 
17.75	 0.47	 161.0929	 
17.75	 0.47	 161.2499	 
17.75	 0.47	 161.3900	 
17.75	 0.47	 161.5470	 
17.75	 0.47	 161.6869	 
17.75	 0.47	 161.8429	 
17.75	 0.47	 161.9840	 
17.75	 0.47	 162.1400	 
17.75	 0.47	 162.2809	 
17.75	 0.47	 162.4530	 
17.75	 0.47	 162.5929	 
17.75	 0.47	 162.7650	 
17.75	 0.47	 162.9059	 
17.75	 0.47	 163.0780	 
17.75	 0.47	 163.2179	 
17.75	 0.47	 163.3900	 
17.75	 0.47	 163.5309	 
17.75	 0.47	 163.6869	 
17.75	 0.47	 163.8280	 
17.75	 0.47	 163.9840	 
17.75	 0.47	 164.1249	 
17.75	 0.47	 164.2809	 
17.75	 0.47	 164.4220	 
17.75	 0.47	 164.5929	 
17.75	 0.47	 164.7340	 
17.75	 0.47	 164.8900	 
17.75	 0.47	 165.0309	 
17.75	 0.47	 165.1869	 
17.75	 0.47	 165.3280	 
17.75	 0.47	 165.4840	 
17.75	 0.47	 165.6249	 
17.75	 0.47	 165.7970	 
17.75	 0.47	 165.9369	 
17.75	 0.47	 166.0929	 
17.75	 0.47	 166.2340	 
17.75	 0.47	 166.3900	 
17.75	 0.47	 166.5309	 
17.75	 0.47	 166.7030	 
17.75	 0.47	 166.8429	 
17.75	 0.47	 167.0150	 
17.75	 0.47	 167.1559	 
17.74	 0.47	 167.3280	 
17.74	 0.47	 167.4679	 
17.74	 0.47	 167.6400	 
17.74	 0.47	 167.7809	 
17.75	 0.47	 167.9369	 
17.75	 0.47	 168.0780	 
17.74	 0.47	 168.2340	 
17.74	 0.47	 168.3749	 
17.74	 0.47	 168.5470	 
17.74	 0.47	 168.6869	 
17.74	 0.47	 168.8590	 
17.75	 0.47	 168.9999	 
17.75	 0.47	 169.1559	 
17.75	 0.47	 169.2970	 
17.75	 0.47	 169.4530	 
17.75	 0.47	 169.5929	 
17.75	 0.47	 169.7650	 
17.75	 0.47	 169.9059	 
17.75	 0.47	 170.0780	 
17.75	 0.47	 170.2179	 
17.75	 0.47	 170.3900	 
17.75	 0.47	 170.5309	 
17.75	 0.47	 170.6869	 
17.75	 0.47	 170.8280	 
17.74	 0.47	 170.9840	 
17.75	 0.47	 171.1249	 
17.75	 0.47	 171.2809	 
17.75	 0.47	 171.4220	 
17.75	 0.47	 171.5929	 
17.75	 0.47	 171.7340	 
17.75	 0.47	 171.8900	 
17.75	 0.47	 172.0309	 
17.75	 0.47	 172.1869	 
17.75	 0.47	 172.3280	 
17.75	 0.47	 172.4840	 
17.75	 0.47	 172.6249	 
17.74	 0.47	 172.7970	 
17.75	 0.47	 172.9369	 
17.75	 0.47	 173.0929	 
17.74	 0.47	 173.2340	 
17.74	 0.47	 173.3900	 
17.74	 0.47	 173.5309	 
17.74	 0.47	 173.7030	 
17.74	 0.47	 173.8429	 
17.74	 0.47	 174.0150	 
17.74	 0.47	 174.1559	 
17.74	 0.47	 174.3280	 
17.74	 0.47	 174.4679	 
17.74	 0.47	 174.6400	 
17.74	 0.47	 174.7809	 
17.74	 0.47	 174.9530	 
17.75	 0.47	 175.0929	 
17.75	 0.47	 175.2499	 
17.75	 0.47	 175.3900	 
17.74	 0.47	 175.5470	 
17.75	 0.47	 175.6869	 
17.75	 0.47	 175.8429	 
17.75	 0.47	 175.9840	 
17.75	 0.47	 176.1400	 
17.75	 0.47	 176.2809	 
17.75	 0.47	 176.4369	 
17.74	 0.47	 176.5780	 
17.74	 0.47	 176.7499	 
17.74	 0.47	 176.8900	 
17.74	 0.47	 177.0470	 
17.74	 0.47	 177.1869	 
17.75	 0.47	 177.3429	 
17.75	 0.47	 177.4840	 
17.75	 0.47	 177.6400	 
17.75	 0.47	 177.7809	 
17.75	 0.47	 177.9530	 
17.75	 0.47	 178.0929	 
17.75	 0.47	 178.2650	 
17.75	 0.47	 178.4059	 
17.75	 0.47	 178.5780	 
17.75	 0.47	 178.7179	 
17.75	 0.47	 178.8900	 
17.75	 0.47	 179.0309	 
17.75	 0.47	 179.1869	 
17.75	 0.47	 179.3280	 
17.75	 0.47	 179.4840	 
17.75	 0.47	 179.6249	 
17.75	 0.47	 179.7970	 
17.75	 0.47	 179.9369	 
17.75	 0.47	 180.0929	 
17.75	 0.47	 180.2340	 
17.75	 0.47	 180.3900	 
17.75	 0.47	 180.5309	 
17.75	 0.47	 180.6869	 
17.75	 0.47	 180.8280	 
17.75	 0.47	 180.9999	 
17.75	 0.47	 181.1400	 
17.75	 0.47	 181.2970	 
17.75	 0.47	 181.4369	 
17.75	 0.47	 181.5929	 
17.75	 0.47	 181.7340	 
17.75	 0.47	 181.8900	 
17.75	 0.47	 182.0309	 
17.75	 0.47	 182.2030	 
17.75	 0.47	 182.3429	 
17.75	 0.47	 182.5150	 
17.75	 0.47	 182.6559	 
17.75	 0.47	 182.8280	 
17.75	 0.47	 182.9679	 
17.75	 0.47	 183.1249	 
17.75	 0.47	 183.2650	 
17.75	 0.47	 183.4220	 
17.75	 0.47	 183.5619	 
17.75	 0.47	 183.7179	 
17.75	 0.47	 183.8590	 
17.75	 0.47	 184.0150	 
17.76	 0.47	 184.1559	 
17.76	 0.47	 184.3280	 
17.76	 0.47	 184.4679	 
17.76	 0.47	 184.6400	 
17.76	 0.47	 184.7809	 
17.76	 0.47	 184.9369	 
17.76	 0.47	 185.0780	 
17.76	 0.47	 185.2340	 
17.76	 0.47	 185.3749	 
17.76	 0.47	 185.5309	 
17.76	 0.47	 185.6720	 
17.76	 0.47	 185.8429	 
17.76	 0.47	 185.9840	 
17.76	 0.47	 186.1400	 
17.76	 0.47	 186.2809	 
17.75	 0.47	 186.4369	 
17.75	 0.47	 186.5780	 
17.75	 0.47	 186.7340	 
17.76	 0.47	 186.8749	 
17.76	 0.47	 187.0470	 
17.76	 0.47	 187.1869	 
17.76	 0.47	 187.3590	 
17.76	 0.47	 187.4999	 
17.76	 0.47	 187.6720	 
17.75	 0.47	 187.8119	 
17.76	 0.47	 187.9679	 
17.76	 0.47	 188.1090	 
17.76	 0.47	 188.2650	 
17.76	 0.47	 188.4059	 
17.75	 0.47	 188.5780	 
17.75	 0.47	 188.7179	 
17.75	 0.47	 188.8900	 
17.76	 0.47	 189.0309	 
17.76	 0.47	 189.1869	 
17.76	 0.47	 189.3280	 
17.76	 0.47	 189.4840	 
17.76	 0.47	 189.6249	 
17.76	 0.47	 189.7970	 
17.76	 0.47	 189.9369	 
17.76	 0.47	 190.1090	 
17.76	 0.47	 190.2499	 
17.76	 0.47	 190.4059	 
17.76	 0.47	 190.5470	 
17.75	 0.47	 190.7340	 
17.75	 0.47	 190.8749	 
17.75	 0.47	 191.0309	 
17.75	 0.47	 191.1720	 
17.75	 0.47	 191.3280	 
17.75	 0.47	 191.4679	 
17.75	 0.47	 191.6400	 
17.75	 0.47	 191.7809	 
17.75	 0.47	 191.9530	 
17.75	 0.47	 192.0929	 
17.75	 0.47	 192.2650	 
17.75	 0.47	 192.4059	 
17.75	 0.47	 192.5619	 
17.75	 0.47	 192.7030	 
17.75	 0.47	 192.8590	 
17.75	 0.47	 192.9999	 
17.75	 0.47	 193.1559	 
17.75	 0.47	 193.2970	 
17.75	 0.47	 193.4530	 
17.75	 0.47	 193.5929	 
17.75	 0.47	 193.7650	 
17.75	 0.47	 193.9059	 
17.75	 0.47	 194.0619	 
17.75	 0.47	 194.2030	 
17.75	 0.47	 194.3590	 
17.75	 0.47	 194.4999	 
17.75	 0.47	 194.6720	 
17.75	 0.47	 194.8119	 
17.75	 0.47	 194.9679	 
17.74	 0.47	 195.1090	 
17.75	 0.47	 195.2650	 
17.75	 0.47	 195.4059	 
17.75	 0.47	 195.5780	 
17.75	 0.47	 195.7179	 
17.75	 0.47	 195.8900	 
17.75	 0.47	 196.0309	 
17.75	 0.47	 196.2030	 
17.75	 0.47	 196.3429	 
17.75	 0.47	 196.5150	 
17.75	 0.47	 196.6559	 
17.75	 0.47	 196.8280	 
17.75	 0.47	 196.9679	 
17.75	 0.47	 197.1249	 
17.75	 0.47	 197.2650	 
17.75	 0.47	 197.4220	 
17.75	 0.47	 197.5619	 
17.75	 0.47	 197.7179	 
17.75	 0.47	 197.8590	 
17.75	 0.47	 198.0150	 
17.75	 0.47	 198.1559	 
17.75	 0.47	 198.3119	 
17.75	 0.47	 198.4530	 
17.75	 0.47	 198.6090	 
17.75	 0.47	 198.7499	 
17.75	 0.47	 198.9059	 
17.75	 0.47	 199.0470	 
17.75	 0.47	 199.2030	 
17.75	 0.47	 199.3429	 
17.75	 0.47	 199.5150	 
17.75	 0.47	 199.6559	 
17.75	 0.47	 199.8280	 
17.75	 0.47	 199.9679	 
17.75	 0.47	 200.1400	 
17.75	 0.47	 200.3119	 
17.75	 0.47	 200.4530	 
17.75	 0.47	 200.5929	 
17.75	 0.47	 200.7650	 
17.75	 0.47	 200.9059	 
17.75	 0.47	 201.0619	 
17.75	 0.47	 201.2030	 
17.75	 0.47	 201.3590	 
17.75	 0.47	 201.4999	 
17.75	 0.47	 201.6720	 
17.75	 0.47	 201.8119	 
17.75	 0.47	 201.9679	 
17.75	 0.47	 202.1090	 
17.75	 0.47	 202.2650	 
17.74	 0.47	 202.4059	 
17.74	 0.47	 202.5619	 
17.74	 0.47	 202.7030	 
17.74	 0.47	 202.8749	 
17.74	 0.47	 203.0150	 
17.74	 0.47	 203.1720	 
17.74	 0.47	 203.3119	 
17.74	 0.47	 203.4679	 
17.74	 0.47	 203.6090	 
17.75	 0.47	 203.7650	 
17.74	 0.47	 203.9059	 
17.74	 0.47	 204.0780	 
17.74	 0.47	 204.2179	 
17.75	 0.47	 204.3900	 
17.74	 0.47	 204.5309	 
17.74	 0.47	 204.7030	 
17.74	 0.47	 204.8429	 
17.74	 0.47	 204.9999	 
17.74	 0.47	 205.1400	 
17.74	 0.47	 205.2970	 
17.74	 0.47	 205.4369	 
17.74	 0.47	 205.5929	 
17.74	 0.47	 205.7340	 
17.74	 0.47	 205.8900	 
17.74	 0.47	 206.0309	 
17.74	 0.47	 206.2030	 
17.74	 0.47	 206.3429	 
17.74	 0.47	 206.5150	 
17.74	 0.47	 206.6559	 
17.74	 0.47	 206.8119	 
17.74	 0.47	 206.9530	 
17.74	 0.47	 207.1090	 
17.74	 0.47	 207.2499	 
17.74	 0.47	 207.4059	 
17.74	 0.47	 207.5470	 
17.74	 0.47	 207.7179	 
17.74	 0.47	 207.8590	 
17.74	 0.47	 208.0150	 
17.74	 0.47	 208.1559	 
17.74	 0.47	 208.3119	 
17.74	 0.47	 208.4530	 
17.74	 0.47	 208.6090	 
17.74	 0.47	 208.7499	 
17.75	 0.47	 208.9220	 
17.74	 0.47	 209.0619	 
17.74	 0.47	 209.2179	 
17.74	 0.47	 209.3590	 
17.74	 0.47	 209.5150	 
17.74	 0.47	 209.6559	 
17.74	 0.47	 209.8119	 
17.74	 0.47	 209.9530	 
17.74	 0.47	 210.1090	 
17.74	 0.47	 210.2499	 
17.74	 0.47	 210.4220	 
17.74	 0.47	 210.5619	 
17.74	 0.47	 210.7179	 
17.74	 0.47	 210.8590	 
17.74	 0.47	 211.0150	 
17.74	 0.47	 211.1559	 
17.75	 0.47	 211.3280	 
17.75	 0.47	 211.4679	 
17.75	 0.47	 211.6400	 
17.75	 0.47	 211.7809	 
17.75	 0.47	 211.9530	 
17.75	 0.47	 212.0929	 
17.75	 0.47	 212.2650	 
17.75	 0.47	 212.4369	 
17.75	 0.47	 212.5780	 
17.75	 0.47	 212.7179	 
17.75	 0.47	 212.8749	 
17.75	 0.47	 213.0150	 
17.75	 0.47	 213.1720	 
17.75	 0.47	 213.3119	 
17.75	 0.47	 213.4679	 
17.75	 0.47	 213.6090	 
17.75	 0.47	 213.7650	 
17.75	 0.47	 213.9059	 
17.75	 0.47	 214.0780	 
17.75	 0.47	 214.2179	 
17.75	 0.47	 214.3900	 
17.75	 0.47	 214.5309	 
17.75	 0.47	 214.7030	 
17.75	 0.47	 214.8429	 
17.75	 0.47	 215.0150	 
17.75	 0.47	 215.1559	 
17.75	 0.47	 215.3280	 
17.75	 0.47	 215.4679	 
17.75	 0.47	 215.6400	 
17.75	 0.47	 215.7809	 
17.75	 0.47	 215.9369	 
17.75	 0.47	 216.0780	 
17.75	 0.47	 216.2340	 
17.75	 0.47	 216.3749	 
17.75	 0.47	 216.5470	 
17.75	 0.47	 216.6869	 
17.75	 0.47	 216.8429	 
17.75	 0.47	 216.9840	 
17.75	 0.47	 217.1400	 
17.75	 0.47	 217.2809	 
17.75	 0.47	 217.4530	 
17.75	 0.47	 217.5929	 
17.75	 0.47	 217.7650	 
17.75	 0.47	 217.9059	 
17.75	 0.47	 218.0780	 
17.74	 0.47	 218.2179	 
17.74	 0.47	 218.3900	 
17.74	 0.47	 218.5309	 
17.74	 0.47	 218.7030	 
17.74	 0.47	 218.8749	 
17.74	 0.47	 219.0150	 
17.74	 0.47	 219.1559	 
17.74	 0.47	 219.3119	 
17.74	 0.47	 219.4530	 
17.74	 0.47	 219.5929	 
17.74	 0.47	 219.7340	 
17.74	 0.47	 219.8900	 
17.74	 0.47	 220.0309	 
17.74	 0.47	 220.1869	 
17.74	 0.47	 220.3280	 
17.74	 0.47	 220.4840	 
17.74	 0.47	 220.6249	 
17.74	 0.47	 220.7970	 
17.74	 0.47	 220.9369	 
17.74	 0.47	 221.0929	 
17.74	 0.47	 221.2340	 
17.74	 0.47	 221.3900	 
17.74	 0.47	 221.5309	 
17.74	 0.47	 221.7030	 
17.74	 0.47	 221.8429	 
17.74	 0.47	 222.0150	 
17.75	 0.47	 222.1559	 
17.75	 0.47	 222.3280	 
17.75	 0.47	 222.4679	 
17.74	 0.47	 222.6400	 
17.74	 0.47	 222.7809	 
17.74	 0.47	 222.9369	 
17.74	 0.47	 223.0780	 
17.74	 0.47	 223.2340	 
17.74	 0.47	 223.3749	 
17.74	 0.47	 223.5470	 
17.74	 0.47	 223.6869	 
17.74	 0.47	 223.8429	 
17.74	 0.47	 223.9840	 
17.74	 0.47	 224.1400	 
17.74	 0.47	 224.2809	 
17.75	 0.47	 224.4530	 
17.75	 0.47	 224.5929	 
17.75	 0.47	 224.7650	 
17.75	 0.47	 224.9059	 
17.75	 0.47	 225.0780	 
17.75	 0.47	 225.2340	 
17.75	 0.47	 225.3900	 
17.75	 0.47	 225.5309	 
17.75	 0.47	 225.7030	 
17.75	 0.47	 225.8429	 
17.75	 0.47	 225.9999	 
17.75	 0.47	 226.1400	 
17.75	 0.47	 226.2970	 
17.75	 0.47	 226.4369	 
17.75	 0.47	 226.5929	 
17.75	 0.47	 226.7340	 
17.75	 0.47	 226.8900	 
17.75	 0.47	 227.0309	 
17.75	 0.47	 227.2030	 
17.75	 0.47	 227.3429	 
17.75	 0.47	 227.4999	 
17.75	 0.47	 227.6400	 
17.75	 0.47	 227.7970	 
17.75	 0.47	 227.9369	 
17.75	 0.47	 228.0929	 
17.75	 0.47	 228.2340	 
17.75	 0.47	 228.3900	 
17.75	 0.47	 228.5309	 
17.75	 0.47	 228.6869	 
17.75	 0.47	 228.8280	 
17.75	 0.47	 228.9840	 
17.75	 0.47	 229.1249	 
17.74	 0.47	 229.2809	 
17.75	 0.47	 229.4220	 
17.74	 0.47	 229.5780	 
17.75	 0.47	 229.7179	 
17.74	 0.47	 229.8749	 
17.75	 0.47	 230.0150	 
17.75	 0.47	 230.1720	 
17.74	 0.47	 230.3119	 
17.74	 0.47	 230.4679	 
17.74	 0.47	 230.6090	 
17.75	 0.47	 230.7650	 
17.75	 0.47	 230.9059	 
17.75	 0.47	 231.0780	 
17.74	 0.47	 231.2179	 
17.75	 0.47	 231.3900	 
17.74	 0.47	 231.5309	 
17.75	 0.47	 231.6869	 
17.75	 0.47	 231.8280	 
17.74	 0.47	 231.9840	 
17.75	 0.47	 232.1249	 
17.75	 0.47	 232.2970	 
17.75	 0.47	 232.4369	 
17.75	 0.47	 232.5929	 
17.74	 0.47	 232.7340	 
17.75	 0.47	 232.8900	 
17.75	 0.47	 233.0309	 
17.75	 0.47	 233.2030	 
17.75	 0.47	 233.3429	 
17.75	 0.47	 233.5150	 
17.75	 0.47	 233.6559	 
17.75	 0.47	 233.8280	 
17.75	 0.47	 233.9679	 
17.75	 0.47	 234.1400	 
17.75	 0.47	 234.2809	 
17.75	 0.47	 234.4530	 
17.75	 0.47	 234.5929	 
17.75	 0.47	 234.7499	 
17.75	 0.47	 234.8900	 
17.74	 0.47	 235.0470	 
17.75	 0.47	 235.1869	 
17.75	 0.47	 235.3429	 
17.75	 0.47	 235.4840	 
17.75	 0.47	 235.6400	 
17.74	 0.47	 235.7809	 
17.75	 0.47	 235.9369	 
17.75	 0.47	 236.0780	 
17.75	 0.47	 236.2340	 
17.75	 0.47	 236.3749	 
17.75	 0.47	 236.5470	 
17.75	 0.47	 236.6869	 
17.75	 0.47	 236.8429	 
17.75	 0.47	 236.9840	 
17.75	 0.47	 237.1400	 
17.75	 0.47	 237.2809	 
17.75	 0.47	 237.4530	 
17.75	 0.47	 237.5929	 
17.75	 0.47	 237.7650	 
17.75	 0.47	 237.9059	 
17.75	 0.47	 238.0780	 
17.75	 0.47	 238.2179	 
17.75	 0.47	 238.3900	 
17.75	 0.47	 238.5309	 
17.75	 0.47	 238.6869	 
17.75	 0.47	 238.8280	 
17.75	 0.47	 238.9999	 
17.75	 0.47	 239.1400	 
17.75	 0.47	 239.2970	 
17.75	 0.47	 239.4369	 
17.75	 0.47	 239.5929	 
17.75	 0.47	 239.7340	 
17.75	 0.47	 239.8900	 
17.75	 0.47	 240.0309	 
17.75	 0.47	 240.1869	 
17.75	 0.47	 240.3280	 
17.75	 0.47	 240.4840	 
17.75	 0.47	 240.6249	 
17.75	 0.47	 240.7970	 
17.75	 0.47	 240.9369	 
17.75	 0.47	 241.0929	 
17.75	 0.47	 241.2340	 
17.74	 0.47	 241.3900	 
17.74	 0.47	 241.5309	 
17.74	 0.47	 241.7030	 
17.74	 0.47	 241.8429	 
17.74	 0.47	 242.0150	 
17.74	 0.47	 242.1559	 
17.75	 0.47	 242.3280	 
17.74	 0.47	 242.4679	 
17.74	 0.47	 242.6249	 
17.74	 0.47	 242.7650	 
17.74	 0.47	 242.9220	 
17.74	 0.47	 243.0619	 
17.74	 0.47	 243.2340	 
17.74	 0.47	 243.3749	 
17.74	 0.47	 243.5309	 
17.68	 0.47	 243.6720	 
15.46	 0.42	 243.8280	 
12.59	 0.35	 243.9679	 
9.75	 0.29	 244.1400	 
6.94	 0.23	 244.2809	 
4.12	 0.17	 244.4369	 
1.92	 0.12	 244.5780	 
0.88	 0.09	 244.7499	 
3.64	 0.15	 244.8900	 
6.47	 0.21	 245.0470	 
9.30	 0.27	 245.1869	 
11.43	 0.32	 245.3429	 
14.27	 0.38	 245.4840	 
17.11	 0.45	 245.6400	 
17.63	 0.46	 245.7809	 
17.70	 0.46	 245.9530	 
17.67	 0.46	 246.0929	 
17.66	 0.46	 246.2650	 
17.67	 0.46	 246.4059	 
17.67	 0.46	 246.5619	 
17.67	 0.46	 246.7030	 
17.67	 0.46	 246.8590	 
17.67	 0.46	 246.9999	 
17.68	 0.46	 247.1720	 
17.68	 0.46	 247.3119	 
17.68	 0.47	 247.4679	 
17.68	 0.47	 247.6090	 
17.68	 0.46	 247.7650	 
17.68	 0.46	 247.9059	 
17.68	 0.46	 248.0619	 
17.68	 0.46	 248.2030	 
17.68	 0.47	 248.3590	 
17.68	 0.47	 248.4999	 
17.68	 0.46	 248.6720	 
17.68	 0.46	 248.8119	 
17.69	 0.46	 248.9679	 
17.69	 0.47	 249.1090	 
17.69	 0.46	 249.2650	 
17.69	 0.46	 249.4059	 
17.69	 0.47	 249.5619	 
17.69	 0.47	 249.7030	 
17.69	 0.46	 249.8749	 
17.69	 0.46	 250.0150	 
17.69	 0.46	 250.1720	 
17.69	 0.46	 250.3119	 
17.69	 0.46	 250.4679	 
17.69	 0.47	 250.6090	 
17.69	 0.46	 250.7650	 
17.69	 0.46	 250.9059	 
17.69	 0.46	 251.0780	 
17.69	 0.46	 251.2179	 
17.69	 0.47	 251.3749	 
17.69	 0.47	 251.5150	 
17.69	 0.46	 251.6720	 
17.69	 0.47	 251.8119	 
17.70	 0.46	 251.9679	 
17.69	 0.46	 252.1090	 
17.70	 0.47	 252.2650	 
17.70	 0.47	 252.4059	 
17.70	 0.47	 252.5619	 
17.70	 0.47	 252.7030	 
17.70	 0.47	 252.8749	 
17.70	 0.46	 253.0150	 
17.70	 0.46	 253.1720	 
17.70	 0.47	 253.3119	 
17.70	 0.46	 253.4679	 
17.70	 0.47	 253.6090	 
17.70	 0.46	 253.7650	 
17.70	 0.46	 253.9059	 
17.70	 0.47	 254.0780	 
17.70	 0.47	 254.2179	 
17.70	 0.46	 254.3900	 
17.70	 0.47	 254.5309	 
17.70	 0.46	 254.6869	 
17.70	 0.47	 254.8280	 
17.70	 0.47	 254.9840	 
17.70	 0.47	 255.1249	 
17.70	 0.47	 255.2970	 
17.70	 0.46	 255.4369	 
17.71	 0.47	 255.5929	 
17.71	 0.46	 255.7340	 
17.70	 0.46	 255.8900	 
17.71	 0.47	 256.0309	 
17.70	 0.47	 256.1869	 
17.71	 0.47	 256.3280	 
17.71	 0.47	 256.4999	 
17.71	 0.46	 256.6400	 
17.71	 0.46	 256.7970	 
17.71	 0.46	 256.9369	 
17.71	 0.47	 257.0929	 
17.71	 0.47	 257.2340	 
17.71	 0.46	 257.3900	 
17.71	 0.47	 257.5309	 
17.71	 0.47	 257.6869	 
17.71	 0.46	 257.8280	 
17.71	 0.47	 257.9999	 
17.71	 0.47	 258.1400	 
17.71	 0.47	 258.2970	 
17.71	 0.47	 258.4369	 
17.71	 0.47	 258.5929	 
17.72	 0.47	 258.7340	 
17.71	 0.47	 258.8900	 
17.72	 0.47	 259.0309	 
17.72	 0.47	 259.1869	 
17.71	 0.47	 259.3280	 
17.72	 0.47	 259.4840	 
17.72	 0.47	 259.6249	 
17.72	 0.47	 259.7970	 
17.72	 0.47	 259.9369	 
17.72	 0.47	 260.1090	 
17.72	 0.47	 260.2499	 
17.72	 0.46	 260.4220	 
17.72	 0.47	 260.5619	 
17.72	 0.47	 260.7340	 
17.72	 0.47	 260.8749	 
17.72	 0.47	 261.0309	 
17.72	 0.47	 261.1720	 
17.72	 0.47	 261.3280	 
17.72	 0.47	 261.4679	 
17.72	 0.47	 261.6400	 
17.72	 0.47	 261.7809	 
17.72	 0.46	 261.9530	 
17.72	 0.46	 262.0929	 
17.72	 0.47	 262.2650	 
17.72	 0.46	 262.4059	 
17.72	 0.47	 262.5619	 
17.72	 0.47	 262.7030	 
17.72	 0.47	 262.8590	 
17.72	 0.47	 262.9999	 
17.72	 0.47	 263.1559	 
17.72	 0.47	 263.2970	 
17.72	 0.47	 263.4530	 
17.72	 0.47	 263.5929	 
17.72	 0.46	 263.7650	 
17.73	 0.47	 263.9059	 
17.72	 0.47	 264.0619	 
17.73	 0.47	 264.2030	 
17.73	 0.46	 264.3590	 
17.73	 0.47	 264.4999	 
17.73	 0.47	 264.6720	 
17.73	 0.47	 264.8119	 
17.73	 0.47	 264.9679	 
17.73	 0.47	 265.1090	 
17.73	 0.47	 265.2650	 
17.73	 0.47	 265.4059	 
17.73	 0.47	 265.5780	 
17.73	 0.47	 265.7179	 
17.73	 0.47	 265.8900	 
17.73	 0.47	 266.0309	 
17.72	 0.47	 266.2030	 
17.72	 0.47	 266.3429	 
17.72	 0.46	 266.5150	 
17.72	 0.47	 266.6559	 
17.72	 0.47	 266.8280	 
17.72	 0.47	 266.9679	 
17.72	 0.47	 267.1249	 
17.72	 0.47	 267.2650	 
17.73	 0.47	 267.4220	 
17.72	 0.47	 267.5619	 
17.72	 0.46	 267.7179	 
17.72	 0.47	 267.8590	 
17.73	 0.47	 268.0150	 
17.73	 0.47	 268.1559	 
17.73	 0.47	 268.3119	 
17.73	 0.47	 268.4530	 
17.73	 0.47	 268.6090	 
17.73	 0.47	 268.7499	 
17.73	 0.47	 268.9059	 
17.73	 0.47	 269.0470	 
17.73	 0.47	 269.2030	 
17.73	 0.47	 269.3429	 
17.73	 0.47	 269.5150	 
17.73	 0.47	 269.6559	 
17.73	 0.47	 269.8280	 
17.73	 0.47	 269.9679	 
17.73	 0.47	 270.1400	 
17.73	 0.47	 270.2809	 
17.73	 0.47	 270.4530	 
17.73	 0.47	 270.5929	 
17.73	 0.47	 270.7650	 
17.73	 0.46	 270.9059	 
17.73	 0.47	 271.0619	 
17.73	 0.47	 271.2030	 
17.73	 0.47	 271.3590	 
17.73	 0.47	 271.4999	 
17.73	 0.47	 271.6720	 
17.73	 0.47	 271.8119	 
17.73	 0.47	 271.9679	 
17.73	 0.46	 272.1090	 
17.73	 0.47	 272.2650	 
17.73	 0.47	 272.4059	 
17.73	 0.47	 272.5619	 
17.73	 0.47	 272.7030	 
17.73	 0.47	 272.8749	 
17.73	 0.47	 273.0150	 
17.73	 0.47	 273.1720	 
17.73	 0.46	 273.3119	 
17.73	 0.47	 273.4679	 
17.73	 0.47	 273.6090	 
17.73	 0.47	 273.7650	 
17.73	 0.47	 273.9059	 
17.73	 0.47	 274.0780	 
17.73	 0.47	 274.2179	 
17.73	 0.47	 274.3900	 
17.73	 0.47	 274.5309	 
17.73	 0.47	 274.7030	 
17.73	 0.47	 274.8429	 
17.73	 0.46	 274.9999	 
17.73	 0.47	 275.1400	 
17.73	 0.47	 275.2970	 
17.73	 0.47	 275.4369	 
17.73	 0.47	 275.5929	 
17.73	 0.47	 275.7340	 
17.73	 0.47	 275.8900	 
17.73	 0.47	 276.0309	 
17.73	 0.47	 276.2030	 
17.73	 0.47	 276.3429	 
17.73	 0.47	 276.5150	 
17.73	 0.46	 276.6559	 
17.73	 0.47	 276.8119	 
17.73	 0.47	 276.9530	 
17.73	 0.47	 277.1090	 
17.73	 0.47	 277.2499	 
17.73	 0.47	 277.4059	 
17.73	 0.47	 277.5470	 
17.73	 0.47	 277.7179	 
17.73	 0.47	 277.8590	 
17.73	 0.47	 278.0150	 
17.73	 0.46	 278.1559	 
17.73	 0.47	 278.3119	 
17.74	 0.47	 278.4530	 
17.73	 0.47	 278.6090	 
17.74	 0.47	 278.7499	 
17.74	 0.47	 278.9220	 
17.74	 0.47	 279.0619	 
17.74	 0.47	 279.2340	 
17.74	 0.47	 279.3749	 
17.74	 0.47	 279.5470	 
17.74	 0.47	 279.6869	 
17.74	 0.47	 279.8429	 
17.74	 0.47	 279.9840	 
17.74	 0.47	 280.1400	 
17.74	 0.47	 280.2809	 
17.74	 0.47	 280.4530	 
17.74	 0.47	 280.5929	 
17.74	 0.47	 280.7650	 
17.74	 0.47	 280.9059	 
17.74	 0.47	 281.0780	 
17.74	 0.47	 281.2179	 
17.74	 0.47	 281.3900	 
17.74	 0.47	 281.5309	 
17.74	 0.47	 281.7030	 
17.74	 0.47	 281.8429	 
17.74	 0.47	 281.9999	 
17.74	 0.47	 282.1400	 
17.74	 0.47	 282.2970	 
17.74	 0.47	 282.4369	 
17.74	 0.46	 282.5929	 
17.74	 0.47	 282.7340	 
17.74	 0.47	 282.8900	 
17.74	 0.47	 283.0309	 
17.74	 0.47	 283.2030	 
17.74	 0.47	 283.3429	 
17.74	 0.47	 283.5150	 
17.74	 0.47	 283.6559	 
17.74	 0.47	 283.8280	 
17.74	 0.47	 283.9679	 
17.74	 0.47	 284.1400	 
17.74	 0.47	 284.2809	 
17.74	 0.47	 284.4530	 
17.74	 0.47	 284.6090	 
17.74	 0.47	 284.7650	 
17.74	 0.47	 284.9059	 
17.74	 0.47	 285.0619	 
17.74	 0.47	 285.2030	 
17.74	 0.47	 285.3590	 
17.74	 0.47	 285.4999	 
17.74	 0.47	 285.6559	 
17.74	 0.47	 285.7970	 
17.74	 0.47	 285.9679	 
17.74	 0.47	 286.1090	 
17.74	 0.47	 286.2650	 
17.74	 0.47	 286.4059	 
17.74	 0.47	 286.5780	 
17.74	 0.47	 286.7179	 
17.74	 0.47	 286.8900	 
17.74	 0.47	 287.0309	 
17.74	 0.47	 287.2030	 
17.74	 0.47	 287.3429	 
17.74	 0.47	 287.5150	 
17.74	 0.46	 287.6559	 
17.74	 0.47	 287.8280	 
17.74	 0.47	 287.9679	 
17.74	 0.47	 288.1249	 
17.74	 0.47	 288.2650	 
17.74	 0.47	 288.4220	 
17.74	 0.47	 288.5619	 
17.74	 0.47	 288.7179	 
17.74	 0.47	 288.8590	 
17.74	 0.47	 289.0150	 
17.74	 0.47	 289.1559	 
17.74	 0.47	 289.3280	 
17.74	 0.47	 289.4679	 
17.74	 0.47	 289.6400	 
17.74	 0.47	 289.7809	 
17.74	 0.47	 289.9530	 
17.74	 0.47	 290.0929	 
17.74	 0.47	 290.2650	 
17.74	 0.47	 290.4059	 
17.74	 0.47	 290.5619	 
17.74	 0.47	 290.7030	 
17.74	 0.47	 290.8590	 
17.74	 0.47	 290.9999	 
17.74	 0.47	 291.1559	 
17.74	 0.47	 291.2970	 
17.74	 0.47	 291.4679	 
17.74	 0.47	 291.6090	 
17.74	 0.47	 291.7650	 
17.74	 0.47	 291.9059	 
17.74	 0.47	 292.0619	 
17.74	 0.47	 292.2030	 
17.74	 0.47	 292.3749	 
17.74	 0.47	 292.5150	 
17.74	 0.47	 292.6720	 
17.74	 0.47	 292.8119	 
17.74	 0.47	 292.9679	 
17.74	 0.47	 293.1090	 
17.74	 0.46	 293.2650	 
17.74	 0.47	 293.4059	 
17.74	 0.47	 293.5780	 
17.74	 0.47	 293.7179	 
17.74	 0.47	 293.8900	 
17.74	 0.47	 294.0309	 
17.74	 0.47	 294.2030	 
17.74	 0.47	 294.3429	 
17.74	 0.47	 294.5150	 
17.74	 0.47	 294.6559	 
17.74	 0.47	 294.8280	 
17.74	 0.47	 294.9679	 
17.74	 0.47	 295.1249	 
17.74	 0.47	 295.2650	 
17.74	 0.47	 295.4220	 
17.74	 0.47	 295.5619	 
17.74	 0.47	 295.7340	 
17.74	 0.47	 295.8749	 
17.74	 0.47	 296.0309	 
17.74	 0.47	 296.1720	 
17.74	 0.47	 296.3280	 
17.74	 0.47	 296.4679	 
17.74	 0.47	 296.6400	 
17.74	 0.47	 296.7809	 
17.74	 0.47	 296.9530	 
17.74	 0.47	 297.0929	 
17.74	 0.47	 297.2650	 
17.74	 0.47	 297.4220	 
17.74	 0.47	 297.5780	 
17.74	 0.47	 297.7179	 
17.74	 0.47	 297.8590	 
17.74	 0.47	 297.9999	 
17.74	 0.47	 298.1559	 
17.74	 0.47	 298.2970	 
17.74	 0.47	 298.4679	 
17.74	 0.47	 298.6090	 
17.74	 0.47	 298.7650	 
17.74	 0.47	 298.9059	 
17.74	 0.47	 299.0619	 
17.74	 0.47	 299.2030	 
17.74	 0.47	 299.3590	 
17.74	 0.47	 299.4999	 
17.74	 0.47	 299.6559	 
17.74	 0.47	 299.7970	 
17.74	 0.47	 299.9530	 
17.74	 0.47	 300.0929	 
17.74	 0.47	 300.2650	 
17.74	 0.47	 300.4059	 
17.74	 0.47	 300.5619	 
17.74	 0.47	 300.7030	 
17.74	 0.47	 300.8749	 
17.74	 0.47	 301.0150	 
17.74	 0.47	 301.1720	 
17.74	 0.47	 301.3119	 
17.74	 0.47	 301.4679	 
17.74	 0.47	 301.6090	 
17.74	 0.47	 301.7650	 
17.74	 0.47	 301.9059	 
17.74	 0.47	 302.0619	 
17.74	 0.47	 302.2030	 
17.74	 0.47	 302.3749	 
17.74	 0.47	 302.5150	 
17.74	 0.47	 302.6720	 
17.74	 0.47	 302.8119	 
17.74	 0.47	 302.9679	 
17.74	 0.47	 303.1090	 
17.74	 0.47	 303.2650	 
17.74	 0.47	 303.4059	 
17.74	 0.47	 303.5619	 
17.74	 0.47	 303.7030	 
17.74	 0.47	 303.8590	 
17.74	 0.47	 303.9999	 
17.74	 0.47	 304.1720	 
17.74	 0.47	 304.3119	 
17.74	 0.47	 304.4840	 
17.74	 0.47	 304.6249	 
17.74	 0.47	 304.7809	 
17.74	 0.47	 304.9220	 
17.74	 0.47	 305.0780	 
17.74	 0.47	 305.2179	 
17.74	 0.47	 305.3900	 
17.74	 0.47	 305.5309	 
17.74	 0.47	 305.6869	 
17.74	 0.47	 305.8280	 
17.74	 0.47	 305.9999	 
17.74	 0.47	 306.1400	 
17.74	 0.47	 306.2970	 
17.74	 0.47	 306.4369	 
17.74	 0.47	 306.5929	 
17.74	 0.47	 306.7340	 
17.74	 0.47	 306.9059	 
17.74	 0.47	 307.0470	 
17.74	 0.47	 307.2179	 
17.74	 0.47	 307.3590	 
17.74	 0.47	 307.5150	 
17.74	 0.47	 307.6559	 
17.74	 0.47	 307.8119	 
17.74	 0.47	 307.9530	 
17.74	 0.47	 308.1090	 
17.74	 0.47	 308.2499	 
17.74	 0.47	 308.4220	 
17.74	 0.47	 308.5619	 
17.74	 0.47	 308.7179	 
17.74	 0.47	 308.8590	 
17.74	 0.47	 309.0150	 
17.74	 0.47	 309.1559	 
17.74	 0.47	 309.3280	 
17.74	 0.47	 309.4679	 
17.74	 0.47	 309.6400	 
17.74	 0.47	 309.7809	 
17.74	 0.46	 309.9530	 
17.74	 0.47	 310.1090	 
17.74	 0.47	 310.2650	 
17.74	 0.47	 310.4059	 
17.74	 0.47	 310.5780	 
17.75	 0.47	 310.7179	 
17.75	 0.47	 310.8749	 
17.75	 0.47	 311.0150	 
17.75	 0.47	 311.1720	 
17.75	 0.47	 311.3119	 
17.75	 0.47	 311.4679	 
17.75	 0.47	 311.6090	 
17.75	 0.47	 311.7650	 
17.75	 0.47	 311.9059	 
17.75	 0.47	 312.0619	 
17.75	 0.47	 312.2030	 
17.75	 0.47	 312.3590	 
17.75	 0.47	 312.4999	 
17.75	 0.47	 312.6720	 
17.75	 0.47	 312.8119	 
17.75	 0.47	 312.9679	 
17.75	 0.47	 313.1090	 
17.75	 0.47	 313.2650	 
17.75	 0.47	 313.4059	 
17.75	 0.47	 313.5780	 
17.75	 0.47	 313.7179	 
17.75	 0.47	 313.8900	 
17.75	 0.47	 314.0309	 
17.75	 0.47	 314.2030	 
17.75	 0.47	 314.3590	 
17.75	 0.47	 314.5150	 
17.75	 0.47	 314.6559	 
17.75	 0.47	 314.8119	 
17.75	 0.47	 314.9530	 
17.75	 0.47	 315.1090	 
17.75	 0.47	 315.2499	 
17.74	 0.47	 315.4220	 
17.75	 0.47	 315.5619	 
17.75	 0.47	 315.7179	 
17.74	 0.47	 315.8590	 
17.74	 0.47	 316.0150	 
17.74	 0.47	 316.1559	 
17.74	 0.47	 316.3280	 
17.74	 0.47	 316.4679	 
17.74	 0.47	 316.6249	 
17.74	 0.47	 316.7650	 
17.74	 0.47	 316.9220	 
17.74	 0.47	 317.0619	 
17.74	 0.47	 317.2179	 
17.74	 0.47	 317.3590	 
17.74	 0.47	 317.5150	 
17.74	 0.47	 317.6559	 
17.74	 0.47	 317.8280	 
17.74	 0.47	 317.9679	 
17.74	 0.47	 318.1400	 
17.74	 0.47	 318.2809	 
17.74	 0.47	 318.4530	 
17.74	 0.47	 318.6090	 
17.74	 0.47	 318.7650	 
17.74	 0.47	 318.9059	 
17.74	 0.47	 319.0470	 
17.74	 0.47	 319.1869	 
17.74	 0.47	 319.3429	 
17.74	 0.47	 319.4840	 
17.74	 0.47	 319.6400	 
17.74	 0.47	 319.7809	 
17.74	 0.47	 319.9530	 
17.74	 0.47	 320.0929	 
17.74	 0.47	 320.2650	 
17.74	 0.46	 320.4059	 
17.74	 0.47	 320.5780	 
17.74	 0.47	 320.7499	 
17.74	 0.46	 320.8900	 
17.74	 0.47	 321.0309	 
17.74	 0.47	 321.2030	 
17.74	 0.47	 321.3429	 
17.74	 0.47	 321.5150	 
17.74	 0.47	 321.6559	 
17.74	 0.47	 321.8429	 
17.74	 0.47	 321.9840	 
17.74	 0.47	 322.1400	 
17.74	 0.47	 322.2809	 
17.74	 0.47	 322.4530	 
17.74	 0.47	 322.5929	 
17.74	 0.47	 322.7650	 
17.74	 0.47	 322.9059	 
17.74	 0.47	 323.0780	 
17.74	 0.47	 323.2179	 
17.74	 0.47	 323.3900	 
17.74	 0.47	 323.5309	 
17.74	 0.47	 323.7030	 
17.74	 0.47	 323.8749	 
17.74	 0.47	 324.0150	 
17.74	 0.47	 324.1559	 
17.74	 0.47	 324.3119	 
17.74	 0.47	 324.4530	 
17.74	 0.47	 324.5929	 
17.74	 0.47	 324.7340	 
17.74	 0.47	 324.8900	 
17.74	 0.47	 325.0309	 
17.74	 0.47	 325.1869	 
17.74	 0.47	 325.3280	 
17.74	 0.47	 325.4999	 
17.74	 0.47	 325.6400	 
17.74	 0.47	 325.7970	 
17.74	 0.47	 325.9369	 
17.74	 0.47	 326.0929	 
17.74	 0.47	 326.2340	 
17.74	 0.47	 326.3900	 
17.74	 0.47	 326.5309	 
17.74	 0.47	 326.7030	 
17.74	 0.47	 326.8429	 
17.74	 0.47	 327.0150	 
17.74	 0.46	 327.1559	 
17.74	 0.47	 327.3280	 
17.74	 0.47	 327.4679	 
17.74	 0.47	 327.6400	 
17.74	 0.47	 327.7809	 
17.74	 0.47	 327.9369	 
17.74	 0.47	 328.0780	 
17.74	 0.47	 328.2340	 
17.74	 0.47	 328.3749	 
17.74	 0.47	 328.5470	 
17.74	 0.47	 328.6869	 
17.74	 0.47	 328.8429	 
17.74	 0.47	 328.9840	 
17.74	 0.47	 329.1400	 
17.74	 0.47	 329.2809	 
17.74	 0.47	 329.4530	 
17.74	 0.47	 329.5929	 
17.74	 0.47	 329.7650	 
17.74	 0.47	 329.9059	 
17.74	 0.47	 330.0780	 
17.74	 0.47	 330.2340	 
17.74	 0.47	 330.3900	 
17.74	 0.47	 330.5309	 
17.74	 0.47	 330.7030	 
17.74	 0.47	 330.8429	 
17.74	 0.47	 330.9999	 
17.74	 0.47	 331.1400	 
17.74	 0.47	 331.2970	 
17.74	 0.47	 331.4369	 
17.74	 0.47	 331.5929	 
17.74	 0.47	 331.7340	 
17.74	 0.47	 331.8900	 
17.74	 0.47	 332.0309	 
17.74	 0.47	 332.2030	 
17.74	 0.47	 332.3429	 
17.74	 0.47	 332.4999	 
17.74	 0.47	 332.6400	 
17.74	 0.47	 332.7970	 
17.74	 0.47	 332.9369	 
17.74	 0.47	 333.0929	 
17.74	 0.47	 333.2340	 
17.74	 0.47	 333.3900	 
17.74	 0.47	 333.5309	 
17.74	 0.47	 333.6869	 
17.74	 0.47	 333.8280	 
17.74	 0.47	 333.9840	 
17.74	 0.47	 334.1249	 
17.74	 0.47	 334.2809	 
17.74	 0.47	 334.4220	 
17.74	 0.47	 334.5929	 
17.74	 0.47	 334.7340	 
17.74	 0.47	 334.8900	 
17.74	 0.47	 335.0309	 
17.74	 0.47	 335.1869	 
17.74	 0.47	 335.3280	 
17.74	 0.47	 335.4840	 
17.74	 0.47	 335.6249	 
17.74	 0.47	 335.7970	 
17.74	 0.47	 335.9369	 
17.74	 0.47	 336.0929	 
17.74	 0.47	 336.2340	 
17.74	 0.47	 336.3900	 
17.74	 0.47	 336.5309	 
17.74	 0.47	 336.6869	 
17.74	 0.47	 336.8280	 
17.74	 0.47	 336.9840	 
17.74	 0.47	 337.1249	 
17.74	 0.47	 337.2970	 
17.74	 0.47	 337.4369	 
17.74	 0.47	 337.5929	 
17.74	 0.47	 337.7340	 
17.74	 0.47	 337.8900	 
17.74	 0.47	 338.0309	 
17.74	 0.47	 338.1869	 
17.74	 0.47	 338.3280	 
17.74	 0.47	 338.4999	 
17.74	 0.46	 338.6400	 
17.74	 0.47	 338.7970	 
17.74	 0.47	 338.9369	 
17.74	 0.47	 339.0929	 
17.74	 0.47	 339.2340	 
17.74	 0.47	 339.3900	 
17.74	 0.47	 339.5309	 
17.74	 0.47	 339.7030	 
17.74	 0.47	 339.8429	 
17.74	 0.47	 340.0150	 
17.74	 0.47	 340.1559	 
17.74	 0.47	 340.3280	 
17.74	 0.47	 340.4679	 
17.74	 0.47	 340.6249	 
17.74	 0.47	 340.7650	 
17.74	 0.47	 340.9220	 
17.74	 0.47	 341.0619	 
17.73	 0.47	 341.2179	 
17.74	 0.47	 341.3590	 
17.73	 0.46	 341.5150	 
17.73	 0.47	 341.6559	 
17.73	 0.47	 341.8119	 
17.73	 0.47	 341.9530	 
17.73	 0.47	 342.1249	 
17.73	 0.47	 342.2650	 
17.73	 0.47	 342.4220	 
17.73	 0.47	 342.5619	 
17.73	 0.47	 342.7179	 
17.73	 0.47	 342.8590	 
17.73	 0.47	 343.0150	 
17.73	 0.47	 343.1559	 
17.73	 0.47	 343.3119	 
17.73	 0.47	 343.4530	 
17.73	 0.47	 343.6090	 
17.73	 0.47	 343.7499	 
17.73	 0.47	 343.9059	 
17.73	 0.47	 344.0470	 
17.73	 0.47	 344.2030	 
17.73	 0.47	 344.3429	 
17.73	 0.47	 344.5150	 
17.73	 0.47	 344.6559	 
17.73	 0.47	 344.8280	 
17.73	 0.47	 344.9679	 
17.73	 0.47	 345.1400	 
17.73	 0.47	 345.2809	 
17.73	 0.47	 345.4369	 
17.73	 0.47	 345.5780	 
17.73	 0.47	 345.7340	 
17.73	 0.47	 345.8749	 
17.73	 0.47	 346.0470	 
17.73	 0.47	 346.1869	 
17.73	 0.47	 346.3429	 
17.73	 0.47	 346.4840	 
17.73	 0.47	 346.6400	 
17.73	 0.47	 346.7809	 
17.73	 0.47	 346.9530	 
17.73	 0.47	 347.0929	 
17.73	 0.47	 347.2650	 
17.73	 0.47	 347.4059	 
17.73	 0.47	 347.5619	 
17.73	 0.47	 347.7030	 
17.73	 0.47	 347.8749	 
17.73	 0.47	 348.0150	 
17.73	 0.47	 348.1720	 
17.73	 0.47	 348.3119	 
17.73	 0.47	 348.4679	 
17.73	 0.47	 348.6090	 
17.73	 0.47	 348.7650	 
17.73	 0.47	 348.9059	 
17.72	 0.47	 349.0780	 
17.73	 0.47	 349.2179	 
17.72	 0.47	 349.3749	 
17.72	 0.47	 349.5150	 
17.72	 0.47	 349.6720	 
17.72	 0.47	 349.8119	 
17.72	 0.47	 349.9679	 
17.73	 0.47	 350.1090	 
17.72	 0.47	 350.2650	 
17.72	 0.47	 350.4059	 
17.73	 0.47	 350.5619	 
17.73	 0.47	 350.7030	 
17.73	 0.47	 350.8749	 
17.73	 0.47	 351.0150	 
17.73	 0.47	 351.1720	 
17.73	 0.47	 351.3119	 
17.73	 0.47	 351.4679	 
17.73	 0.47	 351.6090	 
17.73	 0.47	 351.7650	 
17.73	 0.47	 351.9059	 
17.73	 0.47	 352.0619	 
17.73	 0.47	 352.2030	 
17.73	 0.47	 352.3590	 
17.73	 0.47	 352.4999	 
17.73	 0.47	 352.6559	 
17.73	 0.47	 352.7970	 
17.73	 0.47	 352.9530	 
17.73	 0.47	 353.0929	 
17.73	 0.47	 353.2650	 
17.73	 0.47	 353.4059	 
17.73	 0.47	 353.5780	 
17.73	 0.47	 353.7179	 
17.73	 0.47	 353.8900	 
17.73	 0.46	 354.0309	 
17.73	 0.47	 354.1869	 
17.73	 0.47	 354.3280	 
17.73	 0.47	 354.4840	 
17.73	 0.47	 354.6249	 
17.73	 0.47	 354.7970	 
17.73	 0.47	 354.9369	 
17.73	 0.47	 355.0929	 
17.73	 0.47	 355.2340	 
17.73	 0.47	 355.3900	 
17.73	 0.47	 355.5309	 
17.73	 0.47	 355.7030	 
17.73	 0.47	 355.8429	 
17.73	 0.47	 356.0150	 
17.73	 0.47	 356.1559	 
17.73	 0.47	 356.3280	 
17.73	 0.47	 356.4679	 
17.73	 0.47	 356.6400	 
17.73	 0.47	 356.7809	 
17.73	 0.47	 356.9530	 
17.73	 0.47	 357.0929	 
17.73	 0.46	 357.2499	 
17.73	 0.47	 357.3900	 
17.73	 0.47	 357.5470	 
17.73	 0.47	 357.6869	 
17.73	 0.47	 357.8429	 
17.73	 0.46	 357.9840	 
17.73	 0.47	 358.1400	 
17.73	 0.47	 358.2809	 
17.73	 0.47	 358.4530	 
17.73	 0.47	 358.5929	 
17.73	 0.47	 358.7650	 
17.73	 0.47	 358.9059	 
17.73	 0.47	 359.0780	 
17.73	 0.46	 359.2179	 
17.73	 0.47	 359.3900	 
17.73	 0.47	 359.5309	 
17.73	 0.47	 359.7030	 
17.73	 0.47	 359.8749	 
17.73	 0.47	 360.0150	 
17.73	 0.47	 360.1559	 
17.73	 0.47	 360.3119	 
17.73	 0.47	 360.4530	 
17.73	 0.47	 360.6090	 
17.73	 0.47	 360.7499	 
17.73	 0.47	 360.9220	 
17.73	 0.47	 361.0619	 
17.73	 0.47	 361.2179	 
17.73	 0.47	 361.3590	 
17.73	 0.47	 361.5150	 
17.73	 0.46	 361.6559	 
17.73	 0.47	 361.8119	 
17.73	 0.47	 361.9530	 
17.73	 0.47	 362.1249	 
17.73	 0.47	 362.2650	 
17.73	 0.47	 362.4220	 
17.73	 0.47	 362.5619	 
17.73	 0.47	 362.7179	 
17.73	 0.46	 362.8590	 
17.73	 0.47	 363.0150	 
17.73	 0.47	 363.1559	 
17.73	 0.47	 363.3119	 
17.73	 0.47	 363.4530	 
17.73	 0.47	 363.6090	 
17.73	 0.47	 363.7499	 
17.73	 0.47	 363.9220	 
17.73	 0.47	 364.0619	 
17.73	 0.47	 364.2179	 
17.73	 0.47	 364.3590	 
17.73	 0.47	 364.5150	 
17.73	 0.47	 364.6559	 
17.73	 0.47	 364.8280	 
17.73	 0.47	 364.9679	 
17.73	 0.47	 365.1249	 
16.77	 0.45	 365.2650	 
13.95	 0.38	 365.4220	 
11.90	 0.34	 365.5619	 
9.03	 0.27	 365.7340	 
6.15	 0.21	 365.8749	 
3.39	 0.15	 366.0309	 
0.55	 0.09	 366.1720	 
1.66	 0.11	 366.3280	 
4.46	 0.17	 366.4679	 
7.33	 0.23	 366.6400	 
10.13	 0.29	 366.7809	 
12.94	 0.35	 366.9530	 
15.81	 0.42	 367.0929	 
17.68	 0.46	 367.2650	 
17.77	 0.47	 367.4059	 
17.69	 0.46	 367.5780	 
17.67	 0.46	 367.7179	 
17.70	 0.47	 367.8900	 
17.72	 0.47	 368.0309	 
17.73	 0.47	 368.1869	 
17.73	 0.47	 368.3280	 
17.74	 0.46	 368.4840	 
17.74	 0.47	 368.6249	 
17.74	 0.47	 368.7809	 
17.74	 0.47	 368.9220	 
17.73	 0.47	 369.0929	 
17.73	 0.47	 369.2340	 
17.73	 0.47	 369.3900	 
17.73	 0.47	 369.5309	 
17.73	 0.47	 369.7030	 
17.73	 0.46	 369.8429	 
17.73	 0.47	 370.0150	 
17.73	 0.46	 370.1559	 
17.73	 0.47	 370.3280	 
17.73	 0.47	 370.4840	 
17.73	 0.47	 370.6400	 
17.73	 0.46	 370.7809	 
17.73	 0.47	 370.9530	 
17.73	 0.46	 371.0929	 
17.73	 0.47	 371.2499	 
17.73	 0.47	 371.3900	 
17.73	 0.46	 371.5470	 
17.73	 0.47	 371.6869	 
17.73	 0.47	 371.8429	 
17.73	 0.47	 371.9840	 
17.73	 0.46	 372.1400	 
17.73	 0.46	 372.2809	 
17.73	 0.46	 372.4530	 
17.73	 0.47	 372.5929	 
17.73	 0.46	 372.7499	 
17.73	 0.47	 372.8900	 
17.73	 0.47	 373.0470	 
17.73	 0.47	 373.1869	 
17.73	 0.47	 373.3429	 
17.73	 0.47	 373.4840	 
17.73	 0.46	 373.6400	 
17.73	 0.47	 373.7809	 
17.73	 0.47	 373.9369	 
17.73	 0.47	 374.0780	 
17.73	 0.47	 374.2340	 
17.73	 0.47	 374.3749	 
17.73	 0.46	 374.5309	 
17.73	 0.47	 374.6720	 
17.73	 0.47	 374.8429	 
17.73	 0.46	 374.9840	 
17.73	 0.47	 375.1400	 
17.73	 0.47	 375.2809	 
17.72	 0.47	 375.4530	 
17.73	 0.47	 375.5929	 
17.72	 0.47	 375.7650	 
17.72	 0.47	 375.9059	 
17.72	 0.46	 376.0619	 
17.72	 0.47	 376.2030	 
17.72	 0.47	 376.3590	 
17.72	 0.46	 376.4999	 
17.72	 0.47	 376.6720	 
17.72	 0.47	 376.8119	 
17.72	 0.47	 376.9679	 
17.72	 0.47	 377.1090	 
17.72	 0.47	 377.2650	 
17.72	 0.47	 377.4059	 
17.72	 0.46	 377.5619	 
17.73	 0.46	 377.7030	 
17.73	 0.47	 377.8749	 
17.73	 0.46	 378.0150	 
17.73	 0.47	 378.1720	 
17.73	 0.47	 378.3119	 
17.73	 0.47	 378.4679	 
17.73	 0.46	 378.6090	 
17.73	 0.47	 378.7650	 
17.73	 0.47	 378.9059	 
17.73	 0.47	 379.0780	 
17.73	 0.46	 379.2179	 
17.73	 0.46	 379.3900	 
17.73	 0.47	 379.5309	 
17.73	 0.47	 379.7030	 
17.73	 0.47	 379.8429	 
17.73	 0.47	 379.9999	 
17.73	 0.47	 380.1400	 
17.73	 0.47	 380.2970	 
17.73	 0.47	 380.4369	 
17.73	 0.46	 380.5929	 
17.73	 0.47	 380.7340	 
17.73	 0.47	 380.8900	 
17.73	 0.47	 381.0309	 
17.73	 0.47	 381.1869	 
17.73	 0.47	 381.3280	 
17.73	 0.47	 381.4999	 
17.73	 0.47	 381.6400	 
17.73	 0.47	 381.7970	 
17.73	 0.47	 381.9369	 
17.73	 0.47	 382.0929	 
17.73	 0.47	 382.2340	 
17.73	 0.47	 382.3900	 
17.73	 0.47	 382.5309	 
17.73	 0.47	 382.6869	 
17.73	 0.47	 382.8280	 
17.73	 0.47	 382.9840	 
17.73	 0.46	 383.1249	 
17.73	 0.47	 383.2809	 
17.73	 0.47	 383.4220	 
17.73	 0.47	 383.5929	 
17.73	 0.47	 383.7340	 
17.73	 0.47	 383.8900	 
17.73	 0.47	 384.0309	 
17.72	 0.47	 384.2030	 
17.72	 0.47	 384.3429	 
17.72	 0.47	 384.5150	 
17.72	 0.47	 384.6559	 
17.72	 0.46	 384.8119	 
17.72	 0.47	 384.9530	 
17.72	 0.46	 385.1090	 
17.72	 0.47	 385.2499	 
17.72	 0.47	 385.4059	 
17.72	 0.47	 385.5470	 
17.72	 0.47	 385.7179	 
17.72	 0.46	 385.8590	 
17.72	 0.47	 386.0150	 
17.72	 0.47	 386.1559	 
17.72	 0.47	 386.3280	 
17.72	 0.47	 386.4679	 
17.72	 0.47	 386.6400	 
17.72	 0.47	 386.7809	 
17.72	 0.47	 386.9530	 
17.72	 0.47	 387.0929	 
17.72	 0.47	 387.2650	 
17.72	 0.47	 387.4220	 
17.72	 0.47	 387.5780	 
17.72	 0.47	 387.7179	 
17.72	 0.46	 387.8749	 
17.72	 0.47	 388.0150	 
17.72	 0.46	 388.1720	 
17.72	 0.47	 388.3119	 
17.72	 0.47	 388.4679	 
17.72	 0.47	 388.6090	 
17.72	 0.47	 388.7650	 
17.72	 0.47	 388.9059	 
17.72	 0.47	 389.0780	 
17.72	 0.47	 389.2179	 
17.72	 0.46	 389.3900	 
17.72	 0.47	 389.5309	 
17.72	 0.47	 389.6869	 
17.72	 0.46	 389.8280	 
17.72	 0.47	 389.9840	 
17.72	 0.47	 390.1249	 
17.72	 0.46	 390.2809	 
17.72	 0.47	 390.4220	 
17.72	 0.47	 390.5780	 
17.72	 0.46	 390.7179	 
17.72	 0.46	 390.8900	 
17.72	 0.47	 391.0309	 
17.72	 0.46	 391.1869	 
17.72	 0.47	 391.3280	 
17.72	 0.47	 391.4840	 
17.72	 0.47	 391.6249	 
17.72	 0.47	 391.7970	 
17.72	 0.47	 391.9369	 
17.72	 0.46	 392.0929	 
17.72	 0.47	 392.2340	 
17.72	 0.47	 392.3900	 
17.72	 0.46	 392.5309	 
17.72	 0.47	 392.6869	 
17.72	 0.47	 392.8280	 
17.72	 0.47	 392.9999	 
17.72	 0.47	 393.1400	 
17.72	 0.47	 393.2970	 
17.72	 0.47	 393.4369	 
17.72	 0.47	 393.5929	 
17.72	 0.47	 393.7340	 
17.72	 0.47	 393.8900	 
17.72	 0.46	 394.0309	 
17.72	 0.46	 394.2030	 
17.72	 0.47	 394.3429	 
17.72	 0.47	 394.5150	 
17.72	 0.47	 394.6559	 
17.72	 0.47	 394.8280	 
17.72	 0.47	 394.9679	 
17.72	 0.47	 395.1400	 
17.72	 0.47	 395.2809	 
17.72	 0.47	 395.4530	 
17.72	 0.47	 395.5929	 
17.72	 0.47	 395.7499	 
17.72	 0.47	 395.8900	 
17.72	 0.47	 396.0470	 
17.72	 0.47	 396.1869	 
17.72	 0.47	 396.3590	 
17.72	 0.47	 396.4999	 
17.72	 0.47	 396.6559	 
17.72	 0.47	 396.7970	 
17.72	 0.47	 396.9530	 
17.72	 0.47	 397.0929	 
17.72	 0.47	 397.2650	 
17.72	 0.47	 397.4059	 
17.72	 0.47	 397.5619	 
17.72	 0.47	 397.7030	 
17.72	 0.47	 397.8749	 
17.72	 0.47	 398.0150	 
17.72	 0.47	 398.1720	 
17.72	 0.46	 398.3119	 
17.72	 0.47	 398.4679	 
17.72	 0.47	 398.6090	 
17.72	 0.47	 398.7650	 
17.72	 0.47	 398.9059	 
17.72	 0.47	 399.0780	 
17.72	 0.47	 399.2179	 
17.72	 0.47	 399.3900	 
17.72	 0.47	 399.5309	 
17.72	 0.46	 399.6869	 
17.72	 0.47	 399.8280	 
17.72	 0.47	 399.9840	 
17.72	 0.47	 400.1249	 
17.72	 0.47	 400.3429	 
17.72	 0.47	 400.4840	 
17.72	 0.46	 400.6249	 
17.72	 0.47	 400.7650	 
17.72	 0.47	 400.9059	 
17.72	 0.47	 401.0470	 
17.72	 0.47	 401.2030	 
17.72	 0.47	 401.3590	 
17.72	 0.47	 401.5150	 
17.72	 0.47	 401.6559	 
17.72	 0.47	 401.8280	 
17.72	 0.47	 401.9679	 
17.72	 0.47	 402.1400	 
17.72	 0.47	 402.2809	 
17.73	 0.47	 402.4679	 
17.73	 0.47	 402.6090	 
17.73	 0.47	 402.7650	 
17.73	 0.47	 402.9059	 
17.73	 0.47	 403.0780	 
17.73	 0.47	 403.2179	 
17.73	 0.47	 403.3900	 
17.73	 0.47	 403.5309	 
17.73	 0.47	 403.7030	 
17.73	 0.47	 403.8429	 
17.73	 0.47	 404.0150	 
17.73	 0.47	 404.1559	 
17.73	 0.47	 404.3280	 
17.73	 0.46	 404.4840	 
17.73	 0.47	 404.6400	 
17.73	 0.47	 404.7809	 
17.73	 0.47	 404.9369	 
17.73	 0.47	 405.0780	 
17.73	 0.47	 405.2340	 
17.73	 0.47	 405.3749	 
17.73	 0.46	 405.5309	 
17.73	 0.47	 405.6720	 
17.72	 0.47	 405.8429	 
17.73	 0.47	 405.9840	 
17.73	 0.47	 406.1400	 
17.72	 0.47	 406.2809	 
17.72	 0.47	 406.4369	 
17.72	 0.47	 406.5780	 
17.73	 0.47	 406.7499	 
17.73	 0.47	 406.8900	 
17.73	 0.47	 407.0470	 
17.72	 0.46	 407.1869	 
17.73	 0.47	 407.3429	 
17.73	 0.47	 407.4840	 
17.73	 0.46	 407.6400	 
17.73	 0.46	 407.7809	 
17.73	 0.47	 407.9530	 
17.73	 0.47	 408.0929	 
17.73	 0.47	 408.2650	 
17.73	 0.47	 408.4059	 
17.73	 0.47	 408.5780	 
17.73	 0.47	 408.7340	 
17.73	 0.47	 408.8900	 
17.73	 0.47	 409.0309	 
17.73	 0.47	 409.1869	 
17.73	 0.47	 409.3280	 
17.73	 0.47	 409.4840	 
17.73	 0.47	 409.6249	 
17.73	 0.47	 409.7809	 
17.73	 0.47	 409.9220	 
17.73	 0.47	 410.0780	 
17.73	 0.46	 410.2179	 
17.73	 0.47	 410.3900	 
17.72	 0.47	 410.5309	 
17.72	 0.47	 410.6869	 
17.72	 0.47	 410.8280	 
17.72	 0.47	 410.9999	 
17.72	 0.47	 411.1400	 
17.72	 0.47	 411.2970	 
17.72	 0.47	 411.4369	 
17.72	 0.47	 411.5929	 
17.72	 0.47	 411.7340	 
17.72	 0.46	 411.9059	 
17.72	 0.47	 412.0470	 
17.72	 0.47	 412.2179	 
17.72	 0.47	 412.3590	 
17.72	 0.47	 412.5150	 
17.72	 0.47	 412.6559	 
17.72	 0.47	 412.8119	 
17.72	 0.47	 412.9530	 
17.73	 0.47	 413.1090	 
17.73	 0.47	 413.2499	 
17.73	 0.47	 413.4220	 
17.73	 0.47	 413.5619	 
17.73	 0.47	 413.7179	 
17.72	 0.47	 413.8590	 
17.72	 0.47	 414.0150	 
17.72	 0.47	 414.1559	 
17.72	 0.47	 414.3280	 
17.72	 0.47	 414.4679	 
17.73	 0.47	 414.6400	 
17.73	 0.47	 414.7809	 
17.72	 0.47	 414.9530	 
17.72	 0.47	 415.1090	 
17.72	 0.47	 415.2650	 
17.72	 0.47	 415.4059	 
17.72	 0.47	 415.5780	 
17.72	 0.47	 415.7179	 
17.72	 0.46	 415.8749	 
17.72	 0.47	 416.0150	 
17.72	 0.47	 416.1720	 
17.72	 0.47	 416.3119	 
17.72	 0.47	 416.4679	 
17.72	 0.47	 416.6090	 
17.72	 0.46	 416.7650	 
17.72	 0.47	 416.9059	 
17.72	 0.47	 417.0619	 
17.72	 0.46	 417.2030	 
17.72	 0.47	 417.3590	 
17.72	 0.47	 417.4999	 
17.72	 0.47	 417.6559	 
17.72	 0.47	 417.7970	 
17.72	 0.47	 417.9530	 
17.72	 0.47	 418.0929	 
17.72	 0.46	 418.2650	 
17.72	 0.46	 418.4059	 
17.72	 0.47	 418.5780	 
17.72	 0.47	 418.7179	 
17.72	 0.47	 418.8900	 
17.72	 0.47	 419.0309	 
17.72	 0.47	 419.2030	 
17.72	 0.47	 419.3590	 
17.72	 0.47	 419.5150	 
17.72	 0.47	 419.6559	 
17.72	 0.47	 419.8119	 
17.72	 0.47	 419.9530	 
17.72	 0.47	 420.1090	 
17.72	 0.47	 420.2499	 
17.72	 0.46	 420.4220	 
17.72	 0.47	 420.5619	 
17.72	 0.47	 420.7179	 
17.72	 0.47	 420.8590	 
17.72	 0.46	 421.0150	 
17.72	 0.47	 421.1559	 
17.72	 0.47	 421.3280	 
17.72	 0.47	 421.4679	 
17.72	 0.47	 421.6249	 
17.72	 0.47	 421.7650	 
17.72	 0.47	 421.9220	 
17.72	 0.47	 422.0619	 
17.72	 0.47	 422.2179	 
17.72	 0.47	 422.3590	 
17.72	 0.47	 422.5150	 
17.72	 0.46	 422.6559	 
17.72	 0.47	 422.8280	 
17.72	 0.47	 422.9679	 
17.72	 0.47	 423.1400	 
17.72	 0.47	 423.2809	 
17.72	 0.47	 423.4530	 
17.72	 0.47	 423.6090	 
17.72	 0.47	 423.7650	 
17.72	 0.47	 423.9059	 
17.72	 0.47	 424.0470	 
17.72	 0.47	 424.1869	 
17.72	 0.46	 424.3429	 
17.72	 0.47	 424.4840	 
17.72	 0.46	 424.6400	 
17.72	 0.47	 424.7809	 
17.72	 0.46	 424.9530	 
17.72	 0.47	 425.0929	 
17.72	 0.47	 425.2650	 
17.72	 0.47	 425.4059	 
17.72	 0.47	 425.5619	 
17.72	 0.47	 425.7030	 
17.72	 0.47	 425.8590	 
17.72	 0.47	 425.9999	 
17.72	 0.47	 426.1559	 
17.72	 0.47	 426.2970	 
17.72	 0.47	 426.4679	 
17.72	 0.47	 426.6090	 
17.72	 0.47	 426.7650	 
17.72	 0.47	 426.9059	 
17.72	 0.47	 427.0619	 
17.72	 0.47	 427.2030	 
17.72	 0.47	 427.3590	 
17.72	 0.47	 427.4999	 
17.72	 0.47	 427.6720	 
17.72	 0.46	 427.8119	 
17.72	 0.47	 427.9679	 
17.72	 0.47	 428.1090	 
17.72	 0.47	 428.2650	 
17.72	 0.47	 428.4059	 
17.72	 0.47	 428.5619	 
17.72	 0.47	 428.7030	 
17.72	 0.46	 428.8590	 
17.72	 0.47	 428.9999	 
17.72	 0.47	 429.1720	 
17.72	 0.47	 429.3119	 
17.72	 0.47	 429.4679	 
17.72	 0.47	 429.6090	 
17.72	 0.47	 429.7650	 
17.72	 0.47	 429.9059	 
17.72	 0.47	 430.0780	 
17.72	 0.46	 430.2179	 
17.72	 0.47	 430.3900	 
17.72	 0.47	 430.5309	 
17.72	 0.47	 430.6869	 
17.72	 0.47	 430.8280	 
17.72	 0.47	 430.9999	 
17.72	 0.47	 431.1400	 
17.72	 0.47	 431.2970	 
17.73	 0.47	 431.4369	 
17.72	 0.47	 431.5929	 
17.72	 0.47	 431.7340	 
17.72	 0.47	 431.9059	 
17.72	 0.47	 432.0470	 
17.72	 0.46	 432.2179	 
17.72	 0.47	 432.3590	 
17.72	 0.47	 432.5150	 
17.72	 0.47	 432.6559	 
17.72	 0.47	 432.8280	 
17.72	 0.47	 432.9679	 
17.72	 0.47	 433.1400	 
17.72	 0.47	 433.2809	 
17.72	 0.47	 433.4530	 
17.73	 0.47	 433.5929	 
17.73	 0.47	 433.7650	 
17.73	 0.47	 433.9059	 
17.73	 0.47	 434.0780	 
17.73	 0.47	 434.2499	 
17.72	 0.46	 434.4059	 
17.72	 0.47	 434.5470	 
17.72	 0.47	 434.6869	 
17.72	 0.47	 434.8280	 
17.72	 0.47	 434.9840	 
17.72	 0.47	 435.1249	 
17.72	 0.47	 435.2970	 
17.72	 0.47	 435.4369	 
17.73	 0.47	 435.5929	 
17.73	 0.47	 435.7340	 
17.73	 0.46	 435.8900	 
17.73	 0.47	 436.0309	 
17.73	 0.47	 436.1869	 
17.73	 0.47	 436.3280	 
17.73	 0.47	 436.4999	 
17.73	 0.47	 436.6400	 
17.73	 0.47	 436.7970	 
17.73	 0.47	 436.9369	 
17.73	 0.47	 437.0929	 
17.73	 0.47	 437.2340	 
17.73	 0.46	 437.3900	 
17.73	 0.47	 437.5309	 
17.73	 0.47	 437.6869	 
17.73	 0.47	 437.8280	 
17.73	 0.46	 437.9999	 
17.73	 0.47	 438.1400	 
17.73	 0.47	 438.2970	 
17.73	 0.46	 438.4369	 
17.73	 0.47	 438.5929	 
17.73	 0.47	 438.7340	 
17.73	 0.47	 438.8900	 
17.73	 0.47	 439.0309	 
17.73	 0.46	 439.2030	 
17.73	 0.47	 439.3429	 
17.73	 0.47	 439.4999	 
17.73	 0.47	 439.6400	 
17.73	 0.47	 439.7970	 
17.73	 0.47	 439.9369	 
17.73	 0.47	 440.0929	 
17.73	 0.47	 440.2340	 
17.73	 0.47	 440.3900	 
17.73	 0.47	 440.5309	 
17.73	 0.47	 440.7030	 
17.73	 0.47	 440.8429	 
17.73	 0.47	 441.0150	 
17.73	 0.47	 441.1559	 
17.73	 0.47	 441.3280	 
17.73	 0.47	 441.4679	 
17.73	 0.47	 441.6400	 
17.73	 0.47	 441.7809	 
17.73	 0.47	 441.9530	 
17.73	 0.47	 442.0929	 
17.73	 0.47	 442.2650	 
17.73	 0.47	 442.4059	 
17.73	 0.47	 442.5619	 
17.73	 0.47	 442.7030	 
17.73	 0.47	 442.8749	 
17.73	 0.47	 443.0150	 
17.73	 0.47	 443.1720	 
17.73	 0.46	 443.3119	 
17.72	 0.47	 443.4679	 
17.72	 0.47	 443.6090	 
17.72	 0.47	 443.7650	 
17.72	 0.47	 443.9059	 
17.72	 0.46	 444.0780	 
17.72	 0.47	 444.2179	 
17.72	 0.47	 444.3900	 
17.72	 0.47	 444.5309	 
17.72	 0.47	 444.7030	 
17.72	 0.47	 444.8749	 
17.72	 0.47	 445.0150	 
17.72	 0.46	 445.1559	 
17.72	 0.47	 445.3280	 
17.72	 0.47	 445.4679	 
17.72	 0.47	 445.6249	 
17.72	 0.47	 445.7650	 
17.72	 0.46	 445.9220	 
17.72	 0.47	 446.0619	 
17.72	 0.47	 446.2179	 
17.72	 0.47	 446.3590	 
17.72	 0.47	 446.5150	 
17.72	 0.47	 446.6559	 
17.72	 0.47	 446.8119	 
17.72	 0.47	 446.9530	 
17.72	 0.46	 447.1249	 
17.72	 0.46	 447.2650	 
17.72	 0.46	 447.4220	 
17.72	 0.47	 447.5619	 
17.72	 0.46	 447.7179	 
17.72	 0.47	 447.8590	 
17.72	 0.47	 448.0150	 
17.72	 0.46	 448.1559	 
17.72	 0.47	 448.3119	 
17.72	 0.47	 448.4530	 
17.72	 0.47	 448.6090	 
17.72	 0.47	 448.7499	 
17.72	 0.47	 448.9059	 
17.72	 0.47	 449.0470	 
17.72	 0.47	 449.2030	 
17.72	 0.47	 449.3429	 
17.72	 0.47	 449.5150	 
17.72	 0.47	 449.6559	 
17.72	 0.47	 449.8280	 
17.72	 0.47	 449.9679	 
17.72	 0.47	 450.1400	 
17.72	 0.47	 450.2809	 
17.72	 0.47	 450.4369	 
17.72	 0.47	 450.5780	 
17.72	 0.47	 450.7340	 
17.72	 0.47	 450.8749	 
17.72	 0.47	 451.0470	 
17.72	 0.47	 451.1869	 
17.72	 0.47	 451.3429	 
17.72	 0.47	 451.4840	 
17.72	 0.47	 451.6400	 
17.72	 0.47	 451.7809	 
17.72	 0.47	 451.9530	 
17.72	 0.47	 452.0929	 
17.72	 0.47	 452.2650	 
17.72	 0.47	 452.4059	 
17.72	 0.47	 452.5619	 
17.72	 0.47	 452.7030	 
17.72	 0.47	 452.8749	 
17.72	 0.47	 453.0150	 
17.72	 0.47	 453.1720	 
17.72	 0.46	 453.3119	 
17.72	 0.47	 453.4679	 
17.72	 0.47	 453.6090	 
17.72	 0.46	 453.7809	 
17.72	 0.47	 453.9220	 
17.72	 0.47	 454.0929	 
17.72	 0.47	 454.2340	 
17.72	 0.47	 454.3900	 
17.72	 0.47	 454.5309	 
17.72	 0.47	 454.7030	 
17.72	 0.47	 454.8429	 
17.72	 0.47	 455.0150	 
17.73	 0.47	 455.1559	 
17.73	 0.47	 455.3280	 
17.73	 0.47	 455.4840	 
17.73	 0.47	 455.6400	 
17.73	 0.47	 455.7809	 
17.73	 0.47	 455.9530	 
17.73	 0.47	 456.0929	 
17.73	 0.47	 456.2650	 
17.73	 0.47	 456.4059	 
17.73	 0.47	 456.5780	 
17.73	 0.47	 456.7179	 
17.73	 0.47	 456.8900	 
17.73	 0.47	 457.0309	 
17.73	 0.47	 457.2030	 
17.73	 0.47	 457.3429	 
17.73	 0.47	 457.5150	 
17.73	 0.47	 457.6559	 
17.73	 0.47	 457.8280	 
17.73	 0.47	 457.9679	 
17.73	 0.47	 458.1400	 
17.73	 0.47	 458.2809	 
17.73	 0.47	 458.4530	 
17.73	 0.47	 458.6090	 
17.73	 0.47	 458.7650	 
17.73	 0.47	 458.9059	 
17.73	 0.47	 459.0470	 
17.73	 0.47	 459.1869	 
17.73	 0.47	 459.3429	 
17.73	 0.47	 459.4840	 
17.73	 0.47	 459.6400	 
17.73	 0.47	 459.7809	 
17.73	 0.47	 459.9530	 
17.73	 0.47	 460.0929	 
17.73	 0.47	 460.2650	 
17.73	 0.47	 460.4059	 
17.73	 0.47	 460.5619	 
17.73	 0.46	 460.7030	 
17.73	 0.47	 460.8590	 
17.73	 0.47	 460.9999	 
17.73	 0.47	 461.1559	 
17.73	 0.47	 461.2970	 
17.73	 0.47	 461.4679	 
17.73	 0.47	 461.6090	 
17.73	 0.47	 461.7650	 
17.73	 0.47	 461.9059	 
17.72	 0.47	 462.0619	 
17.72	 0.46	 462.2030	 
17.73	 0.47	 462.3590	 
17.72	 0.47	 462.4999	 
17.72	 0.47	 462.6720	 
17.72	 0.47	 462.8119	 
17.72	 0.46	 462.9679	 
17.72	 0.47	 463.1090	 
17.72	 0.47	 463.2650	 
17.72	 0.47	 463.4059	 
17.73	 0.47	 463.5619	 
17.73	 0.47	 463.7030	 
17.72	 0.47	 463.8590	 
17.72	 0.47	 463.9999	 
17.72	 0.47	 464.1720	 
17.72	 0.47	 464.3119	 
17.73	 0.47	 464.4679	 
17.73	 0.47	 464.6090	 
17.73	 0.47	 464.7650	 
17.73	 0.47	 464.9059	 
17.73	 0.47	 465.0780	 
17.73	 0.47	 465.2179	 
17.73	 0.47	 465.3900	 
17.73	 0.46	 465.5309	 
17.73	 0.46	 465.6869	 
17.73	 0.47	 465.8280	 
17.73	 0.47	 465.9999	 
17.73	 0.47	 466.1400	 
17.72	 0.47	 466.2970	 
17.72	 0.47	 466.4369	 
17.72	 0.47	 466.5929	 
17.72	 0.47	 466.7340	 
17.72	 0.46	 466.9059	 
17.72	 0.47	 467.0470	 
17.72	 0.47	 467.2179	 
17.72	 0.47	 467.3590	 
17.72	 0.47	 467.5150	 
17.72	 0.47	 467.6559	 
17.72	 0.47	 467.8280	 
17.72	 0.47	 467.9679	 
17.72	 0.47	 468.1400	 
17.72	 0.47	 468.2809	 
17.72	 0.47	 468.4530	 
17.72	 0.47	 468.5929	 
17.72	 0.47	 468.7650	 
17.72	 0.47	 468.9059	 
17.72	 0.47	 469.0780	 
17.72	 0.47	 469.2499	 
17.72	 0.47	 469.4059	 
17.72	 0.47	 469.5470	 
17.72	 0.47	 469.6869	 
17.72	 0.47	 469.8280	 
17.72	 0.47	 469.9840	 
17.72	 0.47	 470.1249	 
17.72	 0.47	 470.2970	 
17.72	 0.47	 470.4369	 
17.72	 0.47	 470.5929	 
17.72	 0.47	 470.7340	 
17.72	 0.47	 470.8900	 
17.72	 0.47	 471.0309	 
17.72	 0.46	 471.1869	 
17.72	 0.47	 471.3280	 
17.72	 0.47	 471.4840	 
17.72	 0.46	 471.6249	 
17.72	 0.47	 471.7970	 
17.72	 0.47	 471.9369	 
17.72	 0.47	 472.0929	 
17.72	 0.47	 472.2340	 
17.72	 0.46	 472.3900	 
17.72	 0.47	 472.5309	 
17.72	 0.47	 472.6869	 
17.72	 0.47	 472.8280	 
17.72	 0.47	 472.9999	 
17.72	 0.47	 473.1400	 
17.72	 0.47	 473.2970	 
17.72	 0.47	 473.4369	 
17.72	 0.47	 473.5929	 
17.72	 0.47	 473.7340	 
17.72	 0.47	 473.8900	 
17.72	 0.47	 474.0309	 
17.72	 0.47	 474.2030	 
17.72	 0.47	 474.3429	 
17.72	 0.46	 474.4999	 
17.72	 0.47	 474.6400	 
17.72	 0.47	 474.7970	 
17.72	 0.47	 474.9369	 
17.72	 0.47	 475.0929	 
17.72	 0.47	 475.2340	 
17.72	 0.46	 475.3900	 
17.72	 0.47	 475.5309	 
17.72	 0.47	 475.7030	 
17.72	 0.47	 475.8429	 
17.72	 0.47	 476.0150	 
17.72	 0.47	 476.1559	 
17.72	 0.47	 476.3280	 
17.72	 0.47	 476.4679	 
17.72	 0.47	 476.6400	 
17.72	 0.47	 476.7809	 
17.72	 0.47	 476.9530	 
17.72	 0.46	 477.0929	 
17.72	 0.46	 477.2650	 
17.72	 0.47	 477.4059	 
17.72	 0.47	 477.5619	 
17.72	 0.47	 477.7030	 
17.72	 0.47	 477.8590	 
17.72	 0.47	 477.9999	 
17.72	 0.47	 478.1559	 
17.72	 0.46	 478.2970	 
17.72	 0.47	 478.4679	 
17.72	 0.47	 478.6090	 
17.72	 0.47	 478.7650	 
17.72	 0.47	 478.9059	 
17.72	 0.47	 479.0780	 
17.72	 0.47	 479.2179	 
17.72	 0.47	 479.3900	 
17.72	 0.47	 479.5309	 
17.72	 0.47	 479.7030	 
17.72	 0.46	 479.8590	 
17.72	 0.46	 480.0150	 
17.72	 0.47	 480.1559	 
17.72	 0.47	 480.3280	 
17.72	 0.46	 480.4679	 
17.72	 0.47	 480.6249	 
17.72	 0.47	 480.7650	 
17.72	 0.47	 480.9220	 
17.72	 0.47	 481.0619	 
17.72	 0.47	 481.2179	 
17.72	 0.47	 481.3590	 
17.72	 0.47	 481.5150	 
17.72	 0.47	 481.6559	 
17.72	 0.47	 481.8119	 
17.72	 0.47	 481.9530	 
17.72	 0.47	 482.1090	 
17.72	 0.46	 482.2499	 
17.72	 0.47	 482.4059	 
17.72	 0.47	 482.5470	 
17.72	 0.47	 482.7030	 
17.72	 0.47	 482.8429	 
17.72	 0.47	 482.9999	 
17.72	 0.47	 483.1400	 
17.72	 0.46	 483.2970	 
17.72	 0.47	 483.4369	 
17.72	 0.47	 483.5929	 
17.72	 0.47	 483.7340	 
17.72	 0.47	 483.8900	 
17.72	 0.47	 484.0309	 
17.72	 0.47	 484.2030	 
17.72	 0.47	 484.3429	 
17.72	 0.47	 484.5150	 
17.72	 0.47	 484.6559	 
17.72	 0.47	 484.8280	 
17.72	 0.47	 484.9679	 
17.72	 0.47	 485.1400	 
17.72	 0.47	 485.2809	 
17.72	 0.47	 485.4369	 
17.72	 0.47	 485.5780	 
17.72	 0.47	 485.7340	 
17.72	 0.47	 485.8749	 
17.72	 0.47	 486.0470	 
17.72	 0.47	 486.1869	 
17.72	 0.47	 486.3429	 
17.72	 0.47	 486.4840	 
17.72	 0.46	 486.6400	 
17.63	 0.46	 486.7809	 
14.60	 0.40	 486.9530	 
11.88	 0.34	 487.0929	 
9.01	 0.27	 487.2650	 
6.12	 0.21	 487.4059	 
3.34	 0.15	 487.5780	 
0.51	 0.08	 487.7179	 
2.40	 0.12	 487.8900	 
5.26	 0.18	 488.0309	 
8.13	 0.25	 488.2030	 
10.95	 0.31	 488.3749	 
13.76	 0.37	 488.5150	 
15.93	 0.42	 488.6559	 
17.73	 0.46	 488.8119	 
17.80	 0.47	 488.9530	 
17.73	 0.47	 489.0929	 
17.71	 0.46	 489.2340	 
17.73	 0.47	 489.3900	 
17.74	 0.47	 489.5309	 
17.74	 0.47	 489.7030	 
17.75	 0.47	 489.8429	 
17.75	 0.47	 490.0150	 
17.75	 0.47	 490.1559	 
17.75	 0.47	 490.3280	 
17.75	 0.47	 490.4999	 
17.75	 0.47	 490.6400	 
17.75	 0.46	 490.7809	 
17.75	 0.47	 490.9530	 
17.75	 0.47	 491.0929	 
17.75	 0.47	 491.2650	 
17.75	 0.47	 491.4059	 
17.75	 0.47	 491.5780	 
17.75	 0.47	 491.7179	 
17.75	 0.47	 491.8900	 
17.75	 0.47	 492.0309	 
17.75	 0.47	 492.2030	 
17.75	 0.47	 492.3429	 
17.75	 0.47	 492.5150	 
17.74	 0.47	 492.6559	 
17.74	 0.47	 492.8280	 
17.74	 0.47	 492.9679	 
17.74	 0.47	 493.1400	 
17.74	 0.47	 493.2809	 
17.74	 0.47	 493.4530	 
17.74	 0.47	 493.6090	 
17.75	 0.47	 493.7650	 
17.74	 0.47	 493.9059	 
17.74	 0.47	 494.0470	 
17.74	 0.47	 494.1869	 
17.74	 0.47	 494.3429	 
17.74	 0.47	 494.4840	 
17.74	 0.47	 494.6400	 
17.74	 0.47	 494.7809	 
17.74	 0.47	 494.9530	 
17.74	 0.47	 495.0929	 
17.74	 0.47	 495.2650	 
17.74	 0.47	 495.4059	 
17.74	 0.47	 495.5619	 
17.74	 0.47	 495.7030	 
17.74	 0.47	 495.8590	 
17.74	 0.47	 495.9999	 
17.74	 0.47	 496.1559	 
17.74	 0.47	 496.2970	 
17.74	 0.47	 496.4530	 
17.74	 0.47	 496.5929	 
17.74	 0.47	 496.7499	 
17.74	 0.47	 496.8900	 
17.74	 0.47	 497.0470	 
17.74	 0.47	 497.1869	 
17.74	 0.47	 497.3590	 
17.74	 0.47	 497.4999	 
17.74	 0.46	 497.6720	 
17.74	 0.47	 497.8119	 
17.74	 0.47	 497.9679	 
17.74	 0.47	 498.1090	 
17.74	 0.47	 498.2650	 
17.73	 0.47	 498.4059	 
17.73	 0.47	 498.5619	 
17.73	 0.47	 498.7030	 
17.73	 0.46	 498.8590	 
17.73	 0.47	 498.9999	 
17.73	 0.47	 499.1559	 
17.73	 0.47	 499.2970	 
17.73	 0.47	 499.4679	 
17.73	 0.47	 499.6090	 
17.73	 0.47	 499.7650	 
17.73	 0.47	 499.9059	 
17.73	 0.47	 500.0619	 
17.73	 0.47	 500.2030	 
17.73	 0.47	 500.3749	 
17.73	 0.46	 500.5150	 
17.73	 0.47	 500.6720	 
17.73	 0.47	 500.8119	 
17.73	 0.47	 500.9679	 
17.73	 0.47	 501.1090	 
17.73	 0.47	 501.2650	 
17.73	 0.47	 501.4059	 
17.73	 0.47	 501.5780	 
17.73	 0.47	 501.7179	 
17.73	 0.47	 501.8900	 
17.73	 0.47	 502.0309	 
17.73	 0.47	 502.2030	 
17.73	 0.47	 502.3429	 
17.73	 0.47	 502.4999	 
17.73	 0.47	 502.6400	 
17.73	 0.47	 502.7970	 
17.73	 0.47	 502.9369	 
17.73	 0.47	 503.0929	 
17.73	 0.47	 503.2340	 
17.73	 0.46	 503.3900	 
17.73	 0.47	 503.5309	 
17.73	 0.46	 503.6869	 
17.73	 0.47	 503.8280	 
17.73	 0.47	 503.9999	 
17.73	 0.47	 504.1400	 
17.73	 0.47	 504.2970	 
17.73	 0.47	 504.4369	 
17.73	 0.47	 504.5929	 
17.73	 0.47	 504.7340	 
17.73	 0.47	 504.8900	 
17.73	 0.47	 505.0309	 
17.73	 0.47	 505.1869	 
17.73	 0.47	 505.3280	 
17.73	 0.47	 505.4840	 
17.73	 0.47	 505.6249	 
17.73	 0.47	 505.7809	 
17.73	 0.47	 505.9220	 
17.73	 0.47	 506.0929	 
17.73	 0.47	 506.2340	 
17.73	 0.46	 506.3900	 
17.73	 0.47	 506.5309	 
17.73	 0.47	 506.7030	 
17.73	 0.47	 506.8429	 
17.73	 0.47	 507.0150	 
17.73	 0.47	 507.1559	 
17.73	 0.46	 507.3119	 
17.73	 0.47	 507.4530	 
17.73	 0.46	 507.6090	 
17.73	 0.46	 507.7499	 
17.73	 0.47	 507.9059	 
17.73	 0.47	 508.0470	 
17.73	 0.47	 508.2179	 
17.73	 0.47	 508.3590	 
17.73	 0.47	 508.5150	 
17.73	 0.47	 508.6559	 
17.73	 0.47	 508.8119	 
17.73	 0.47	 508.9530	 
17.73	 0.47	 509.1249	 
17.73	 0.47	 509.2650	 
17.73	 0.47	 509.4220	 
17.73	 0.47	 509.5619	 
17.73	 0.46	 509.7179	 
17.73	 0.47	 509.8590	 
17.73	 0.46	 510.0150	 
17.73	 0.47	 510.1559	 
17.73	 0.46	 510.3280	 
17.73	 0.47	 510.4679	 
17.73	 0.46	 510.6400	 
17.73	 0.47	 510.7809	 
17.73	 0.46	 510.9530	 
17.73	 0.46	 511.0929	 
17.73	 0.47	 511.2499	 
17.73	 0.47	 511.3900	 
17.73	 0.47	 511.5470	 
17.73	 0.46	 511.6869	 
17.73	 0.47	 511.8429	 
17.73	 0.47	 511.9840	 
17.73	 0.47	 512.1400	 
17.73	 0.47	 512.2809	 
17.73	 0.47	 512.4530	 
17.73	 0.47	 512.5929	 
17.73	 0.46	 512.7499	 
17.73	 0.47	 512.8900	 
17.73	 0.47	 513.0470	 
17.73	 0.47	 513.1869	 
17.73	 0.46	 513.3429	 
17.73	 0.46	 513.4840	 
17.73	 0.47	 513.6400	 
17.73	 0.47	 513.7809	 
17.73	 0.47	 513.9369	 
17.73	 0.47	 514.0780	 
17.73	 0.46	 514.2340	 
17.73	 0.47	 514.3749	 
17.73	 0.47	 514.5309	 
17.73	 0.46	 514.6720	 
17.73	 0.47	 514.8429	 
17.73	 0.46	 514.9840	 
17.73	 0.47	 515.1400	 
17.73	 0.47	 515.2809	 
17.73	 0.47	 515.4530	 
17.73	 0.47	 515.5929	 
17.73	 0.47	 515.7650	 
17.73	 0.46	 515.9059	 
17.73	 0.47	 516.0619	 
17.73	 0.47	 516.2030	 
17.73	 0.47	 516.3590	 
17.73	 0.47	 516.4999	 
17.73	 0.46	 516.6720	 
17.73	 0.47	 516.8119	 
17.73	 0.47	 516.9679	 
17.73	 0.47	 517.1090	 
17.73	 0.47	 517.2650	 
17.73	 0.47	 517.4059	 
17.73	 0.47	 517.5619	 
17.73	 0.46	 517.7030	 
17.73	 0.47	 517.8749	 
17.73	 0.47	 518.0150	 
17.73	 0.47	 518.1720	 
17.73	 0.47	 518.3119	 
17.73	 0.47	 518.4679	 
17.73	 0.47	 518.6090	 
17.73	 0.47	 518.7650	 
17.73	 0.47	 518.9059	 
17.73	 0.47	 519.0780	 
17.73	 0.47	 519.2179	 
17.73	 0.46	 519.3900	 
17.73	 0.47	 519.5309	 
17.72	 0.46	 519.7030	 
17.72	 0.47	 519.8429	 
17.73	 0.47	 519.9999	 
17.72	 0.47	 520.1400	 
17.73	 0.47	 520.2970	 
17.73	 0.47	 520.4369	 
17.73	 0.47	 520.5929	 
17.73	 0.46	 520.7340	 
17.73	 0.47	 520.8900	 
17.73	 0.46	 521.0309	 
17.73	 0.47	 521.1869	 
17.73	 0.47	 521.3280	 
17.72	 0.47	 521.4999	 
17.72	 0.47	 521.6400	 
17.72	 0.47	 521.7970	 
17.72	 0.47	 521.9369	 
17.72	 0.47	 522.0929	 
17.72	 0.47	 522.2340	 
17.72	 0.47	 522.3900	 
17.72	 0.47	 522.5309	 
17.72	 0.46	 522.6869	 
17.72	 0.47	 522.8280	 
17.72	 0.47	 522.9840	 
17.72	 0.47	 523.1249	 
17.72	 0.47	 523.2809	 
17.72	 0.47	 523.4220	 
17.72	 0.47	 523.5929	 
17.72	 0.47	 523.7340	 
17.72	 0.46	 523.8900	 
17.72	 0.46	 524.0309	 
17.72	 0.46	 524.2030	 
17.72	 0.47	 524.3429	 
17.72	 0.47	 524.5150	 
17.72	 0.47	 524.6559	 
17.72	 0.47	 524.8119	 
17.72	 0.47	 524.9530	 
17.72	 0.47	 525.1090	 
17.72	 0.46	 525.2499	 
17.72	 0.47	 525.4059	 
17.72	 0.47	 525.5470	 
17.72	 0.47	 525.7179	 
17.72	 0.47	 525.8590	 
17.72	 0.47	 526.0150	 
17.72	 0.47	 526.1559	 
17.72	 0.47	 526.3280	 
17.72	 0.47	 526.4679	 
17.72	 0.47	 526.6400	 
17.72	 0.46	 526.7809	 
17.72	 0.47	 526.9530	 
17.72	 0.47	 527.0929	 
17.72	 0.46	 527.2650	 
17.72	 0.47	 527.4220	 
17.72	 0.47	 527.5780	 
17.72	 0.47	 527.7179	 
17.72	 0.46	 527.8749	 
17.72	 0.47	 528.0150	 
17.72	 0.47	 528.1720	 
17.72	 0.47	 528.3119	 
17.72	 0.47	 528.4679	 
17.72	 0.47	 528.6090	 
17.72	 0.47	 528.7650	 
17.72	 0.47	 528.9059	 
17.72	 0.46	 529.0780	 
17.72	 0.47	 529.2179	 
17.72	 0.47	 529.3900	 
17.72	 0.47	 529.5309	 
17.72	 0.46	 529.6869	 
17.71	 0.47	 529.8280	 
17.71	 0.47	 529.9840	 
17.72	 0.47	 530.1249	 
17.72	 0.47	 530.2809	 
17.72	 0.46	 530.4220	 
17.72	 0.47	 530.5780	 
17.72	 0.46	 530.7179	 
17.72	 0.47	 530.8900	 
17.72	 0.46	 531.0309	 
17.72	 0.47	 531.1869	 
17.72	 0.46	 531.3280	 
17.72	 0.47	 531.4840	 
17.72	 0.47	 531.6249	 
17.72	 0.47	 531.7970	 
17.72	 0.47	 531.9369	 
17.71	 0.46	 532.0929	 
17.71	 0.47	 532.2340	 
17.71	 0.46	 532.3900	 
17.71	 0.46	 532.5309	 
17.71	 0.47	 532.6869	 
17.71	 0.47	 532.8280	 
17.71	 0.47	 532.9840	 
17.71	 0.47	 533.1249	 
17.71	 0.47	 533.2970	 
17.71	 0.46	 533.4369	 
17.71	 0.47	 533.5929	 
17.71	 0.47	 533.7340	 
17.71	 0.47	 533.8900	 
17.71	 0.46	 534.0309	 
17.72	 0.47	 534.2030	 
17.72	 0.46	 534.3429	 
17.71	 0.47	 534.5150	 
17.72	 0.47	 534.6559	 
17.71	 0.46	 534.8280	 
17.72	 0.47	 534.9679	 
17.72	 0.47	 535.1400	 
17.72	 0.46	 535.2809	 
17.71	 0.47	 535.4530	 
17.71	 0.46	 535.5929	 
17.71	 0.47	 535.7499	 
17.71	 0.47	 535.8900	 
17.71	 0.47	 536.0470	 
17.71	 0.47	 536.1869	 
17.71	 0.47	 536.3590	 
17.71	 0.46	 536.4999	 
17.71	 0.47	 536.6559	 
17.71	 0.47	 536.7970	 
17.71	 0.47	 536.9530	 
17.72	 0.46	 537.0929	 
17.71	 0.46	 537.2650	 
17.71	 0.46	 537.4059	 
17.71	 0.47	 537.5619	 
17.72	 0.46	 537.7030	 
17.72	 0.47	 537.8749	 
17.72	 0.47	 538.0150	 
17.72	 0.47	 538.1720	 
17.72	 0.47	 538.3119	 
17.71	 0.46	 538.4679	 
17.71	 0.47	 538.6090	 
17.71	 0.47	 538.7650	 
17.71	 0.47	 538.9059	 
17.71	 0.46	 539.0780	 
17.72	 0.47	 539.2179	 
17.71	 0.47	 539.3900	 
17.72	 0.46	 539.5309	 
17.72	 0.47	 539.6869	 
17.71	 0.46	 539.8280	 
17.71	 0.47	 539.9840	 
17.71	 0.46	 540.1249	 
17.71	 0.47	 540.2970	 
17.71	 0.47	 540.4369	 
17.71	 0.47	 540.5929	 
17.71	 0.46	 540.7340	 
17.71	 0.47	 540.8900	 
17.71	 0.46	 541.0309	 
17.71	 0.47	 541.2030	 
17.71	 0.47	 541.3429	 
17.71	 0.47	 541.5150	 
17.71	 0.47	 541.6559	 
17.71	 0.46	 541.8280	 
17.71	 0.47	 541.9679	 
17.71	 0.47	 542.1400	 
17.71	 0.47	 542.2809	 
17.71	 0.47	 542.4369	 
17.71	 0.47	 542.5780	 
17.71	 0.46	 542.7499	 
17.71	 0.47	 542.8900	 
17.71	 0.47	 543.0470	 
17.71	 0.47	 543.1869	 
17.71	 0.47	 543.3429	 
17.71	 0.47	 543.4840	 
17.71	 0.47	 543.6400	 
17.71	 0.47	 543.7809	 
17.71	 0.47	 543.9369	 
17.71	 0.47	 544.0780	 
17.71	 0.47	 544.2499	 
17.71	 0.47	 544.3900	 
17.72	 0.47	 544.5470	 
17.72	 0.47	 544.6869	 
17.71	 0.47	 544.8429	 
17.72	 0.47	 544.9840	 
17.72	 0.47	 545.1400	 
17.72	 0.46	 545.2809	 
17.72	 0.46	 545.4530	 
17.72	 0.47	 545.5929	 
17.72	 0.47	 545.7650	 
17.72	 0.47	 545.9059	 
17.72	 0.47	 546.0780	 
17.72	 0.46	 546.2179	 
17.72	 0.47	 546.3900	 
17.72	 0.47	 546.5619	 
17.72	 0.46	 546.7030	 
17.72	 0.47	 546.8429	 
17.72	 0.46	 546.9999	 
17.72	 0.47	 547.1400	 
17.72	 0.47	 547.2970	 
17.72	 0.47	 547.4369	 
17.72	 0.46	 547.5929	 
17.72	 0.46	 547.7340	 
17.72	 0.47	 547.8900	 
17.72	 0.47	 548.0309	 
17.72	 0.46	 548.1869	 
17.72	 0.47	 548.3280	 
17.71	 0.47	 548.4999	 
17.71	 0.47	 548.6400	 
17.71	 0.47	 548.7970	 
17.71	 0.47	 548.9369	 
17.71	 0.47	 549.0929	 
17.71	 0.46	 549.2340	 
17.71	 0.47	 549.4059	 
17.71	 0.47	 549.5470	 
17.71	 0.46	 549.7179	 
17.71	 0.47	 549.8590	 
17.71	 0.46	 550.0309	 
17.71	 0.47	 550.1720	 
17.71	 0.47	 550.3429	 
17.71	 0.47	 550.4840	 
17.71	 0.47	 550.6400	 
17.71	 0.46	 550.7809	 
17.71	 0.47	 550.9369	 
17.71	 0.47	 551.0780	 
17.71	 0.46	 551.2340	 
17.72	 0.47	 551.3749	 
17.72	 0.46	 551.5470	 
17.72	 0.47	 551.6869	 
17.71	 0.47	 551.8429	 
17.72	 0.47	 551.9840	 
17.72	 0.46	 552.1400	 
17.71	 0.47	 552.2809	 
17.71	 0.46	 552.4530	 
17.71	 0.47	 552.5929	 
17.71	 0.47	 552.7650	 
17.71	 0.47	 552.9059	 
17.71	 0.46	 553.0780	 
17.71	 0.47	 553.2179	 
17.71	 0.47	 553.3900	 
17.71	 0.47	 553.5309	 
17.71	 0.47	 553.6869	 
17.71	 0.47	 553.8280	 
17.71	 0.46	 553.9999	 
17.72	 0.46	 554.1400	 
17.71	 0.47	 554.2970	 
17.71	 0.47	 554.4369	 
17.71	 0.46	 554.5929	 
17.72	 0.47	 554.7340	 
17.71	 0.46	 554.8900	 
17.71	 0.46	 555.0309	 
17.71	 0.47	 555.1869	 
17.71	 0.47	 555.3280	 
17.71	 0.47	 555.4999	 
17.71	 0.47	 555.6400	 
17.71	 0.47	 555.7970	 
17.71	 0.47	 555.9369	 
17.71	 0.46	 556.0929	 
17.71	 0.47	 556.2340	 
17.71	 0.46	 556.3900	 
17.71	 0.46	 556.5309	 
17.71	 0.47	 556.7030	 
17.71	 0.47	 556.8429	 
17.71	 0.46	 557.0150	 
17.71	 0.47	 557.1559	 
17.71	 0.47	 557.3280	 
17.71	 0.46	 557.4679	 
17.71	 0.47	 557.6249	 
17.71	 0.47	 557.7650	 
17.71	 0.47	 557.9220	 
17.71	 0.47	 558.0619	 
17.71	 0.47	 558.2340	 
17.71	 0.47	 558.3749	 
17.71	 0.47	 558.5309	 
17.71	 0.47	 558.6720	 
17.71	 0.47	 558.8280	 
17.71	 0.47	 558.9679	 
17.71	 0.47	 559.1400	 
17.71	 0.47	 559.2809	 
17.71	 0.47	 559.4369	 
17.71	 0.46	 559.5780	 
17.71	 0.47	 559.7499	 
17.71	 0.47	 559.8900	 
17.71	 0.47	 560.0470	 
17.71	 0.47	 560.1869	 
17.71	 0.47	 560.3429	 
17.71	 0.46	 560.4840	 
17.71	 0.47	 560.6400	 
17.71	 0.47	 560.7809	 
17.71	 0.47	 560.9530	 
17.71	 0.47	 561.0929	 
17.71	 0.47	 561.2650	 
17.71	 0.47	 561.4059	 
17.71	 0.47	 561.5619	 
17.71	 0.47	 561.7030	 
17.71	 0.47	 561.8590	 
17.71	 0.47	 561.9999	 
17.71	 0.47	 562.1720	 
17.71	 0.46	 562.3119	 
17.71	 0.47	 562.4679	 
17.71	 0.47	 562.6090	 
17.71	 0.47	 562.7650	 
17.71	 0.47	 562.9059	 
17.71	 0.47	 563.0780	 
17.71	 0.47	 563.2179	 
17.71	 0.47	 563.3900	 
17.71	 0.47	 563.5309	 
17.71	 0.47	 563.6869	 
17.71	 0.47	 563.8280	 
17.71	 0.47	 563.9999	 
17.71	 0.47	 564.1400	 
17.71	 0.47	 564.2970	 
17.71	 0.47	 564.4369	 
17.71	 0.47	 564.5929	 
17.72	 0.47	 564.7340	 
17.72	 0.47	 564.8900	 
17.71	 0.47	 565.0309	 
17.72	 0.47	 565.1869	 
17.72	 0.46	 565.3280	 
17.72	 0.46	 565.4999	 
17.71	 0.47	 565.6400	 
17.72	 0.46	 565.7970	 
17.72	 0.47	 565.9369	 
17.72	 0.47	 566.1090	 
17.71	 0.46	 566.2499	 
17.71	 0.47	 566.4059	 
17.71	 0.47	 566.5470	 
17.72	 0.47	 566.7030	 
17.71	 0.46	 566.8429	 
17.71	 0.47	 567.0150	 
17.71	 0.47	 567.1559	 
17.71	 0.47	 567.3280	 
17.71	 0.47	 567.4679	 
17.71	 0.46	 567.6400	 
17.71	 0.46	 567.7809	 
17.71	 0.47	 567.9369	 
17.71	 0.46	 568.0780	 
17.71	 0.47	 568.2340	 
17.71	 0.46	 568.3749	 
17.71	 0.46	 568.5470	 
17.71	 0.47	 568.6869	 
17.71	 0.46	 568.8429	 
17.71	 0.46	 568.9840	 
17.71	 0.47	 569.1400	 
17.71	 0.47	 569.2809	 
17.71	 0.47	 569.4369	 
17.71	 0.47	 569.5780	 
17.71	 0.47	 569.7499	 
17.71	 0.47	 569.8900	 
17.71	 0.47	 570.0470	 
17.71	 0.47	 570.1869	 
17.71	 0.46	 570.3429	 
17.71	 0.47	 570.4840	 
17.71	 0.47	 570.6400	 
17.71	 0.47	 570.7809	 
17.71	 0.47	 570.9530	 
17.71	 0.47	 571.0929	 
17.71	 0.46	 571.2650	 
17.71	 0.47	 571.4059	 
17.71	 0.47	 571.5619	 
17.71	 0.46	 571.7030	 
17.71	 0.47	 571.8749	 
17.71	 0.46	 572.0150	 
17.71	 0.47	 572.1720	 
17.71	 0.47	 572.3119	 
17.71	 0.47	 572.4679	 
17.71	 0.46	 572.6090	 
17.71	 0.46	 572.7650	 
17.71	 0.47	 572.9059	 
17.71	 0.47	 573.0780	 
17.71	 0.47	 573.2179	 
17.71	 0.47	 573.3749	 
17.71	 0.47	 573.5150	 
17.71	 0.47	 573.6720	 
17.71	 0.47	 573.8119	 
17.71	 0.47	 573.9679	 
17.71	 0.46	 574.1090	 
17.71	 0.47	 574.2650	 
17.71	 0.46	 574.4059	 
17.71	 0.47	 574.5619	 
17.71	 0.47	 574.7030	 
17.71	 0.47	 574.8590	 
17.71	 0.47	 574.9999	 
17.71	 0.47	 575.1720	 
17.71	 0.47	 575.3119	 
17.71	 0.47	 575.4679	 
17.71	 0.47	 575.6090	 
17.71	 0.47	 575.7650	 
17.71	 0.47	 575.9059	 
17.71	 0.47	 576.0780	 
17.71	 0.46	 576.2179	 
17.71	 0.47	 576.3900	 
17.71	 0.46	 576.5309	 
17.71	 0.47	 576.7030	 
17.71	 0.47	 576.8429	 
17.71	 0.47	 577.0150	 
17.71	 0.47	 577.1559	 
17.71	 0.47	 577.3119	 
17.71	 0.47	 577.4530	 
17.71	 0.47	 577.6090	 
17.71	 0.47	 577.7499	 
17.71	 0.46	 577.9220	 
17.71	 0.47	 578.0619	 
17.71	 0.47	 578.2179	 
17.71	 0.47	 578.3590	 
17.71	 0.47	 578.5150	 
17.71	 0.47	 578.6559	 
17.71	 0.47	 578.8280	 
17.71	 0.47	 578.9679	 
17.71	 0.47	 579.1400	 
17.71	 0.47	 579.2809	 
17.71	 0.47	 579.4530	 
17.71	 0.46	 579.5929	 
17.71	 0.47	 579.7650	 
17.71	 0.47	 579.9059	 
17.71	 0.46	 580.0780	 
17.71	 0.47	 580.2179	 
17.71	 0.46	 580.3749	 
17.71	 0.47	 580.5150	 
17.71	 0.46	 580.6720	 
17.71	 0.47	 580.8119	 
17.71	 0.46	 580.9679	 
17.71	 0.47	 581.1090	 
17.71	 0.46	 581.2650	 
17.71	 0.47	 581.4059	 
17.71	 0.47	 581.5619	 
17.71	 0.46	 581.7030	 
17.71	 0.46	 581.8590	 
17.71	 0.47	 581.9999	 
17.71	 0.47	 582.1720	 
17.71	 0.47	 582.3119	 
17.71	 0.47	 582.4679	 
17.71	 0.46	 582.6090	 
17.71	 0.47	 582.7650	 
17.71	 0.47	 582.9059	 
17.71	 0.47	 583.0780	 
17.71	 0.47	 583.2179	 
17.71	 0.47	 583.3900	 
17.71	 0.46	 583.5309	 
17.71	 0.47	 583.6869	 
17.71	 0.46	 583.8280	 
17.71	 0.46	 583.9840	 
17.71	 0.47	 584.1249	 
17.71	 0.46	 584.2809	 
17.71	 0.46	 584.4220	 
17.71	 0.47	 584.5929	 
17.71	 0.47	 584.7340	 
17.71	 0.47	 584.8900	 
17.71	 0.46	 585.0309	 
17.71	 0.46	 585.1869	 
17.71	 0.46	 585.3280	 
17.71	 0.46	 585.4999	 
17.71	 0.47	 585.6400	 
17.71	 0.47	 585.7970	 
17.71	 0.47	 585.9369	 
17.71	 0.47	 586.0929	 
17.71	 0.47	 586.2340	 
17.71	 0.46	 586.3900	 
17.71	 0.47	 586.5309	 
17.71	 0.47	 586.7030	 
17.71	 0.47	 586.8429	 
17.71	 0.46	 587.0150	 
17.71	 0.47	 587.1559	 
17.71	 0.46	 587.3280	 
17.71	 0.47	 587.4679	 
17.71	 0.46	 587.6400	 
17.71	 0.46	 587.7809	 
17.71	 0.47	 587.9530	 
17.71	 0.46	 588.0929	 
17.71	 0.47	 588.2499	 
17.71	 0.47	 588.3900	 
17.71	 0.47	 588.5470	 
17.71	 0.47	 588.6869	 
17.71	 0.47	 588.8590	 
17.71	 0.47	 588.9999	 
17.71	 0.47	 589.1559	 
17.71	 0.47	 589.2970	 
17.71	 0.47	 589.4530	 
17.71	 0.46	 589.5929	 
17.71	 0.47	 589.7650	 
17.71	 0.47	 589.9059	 
17.71	 0.46	 590.0780	 
17.71	 0.47	 590.2179	 
17.71	 0.47	 590.3900	 
17.71	 0.47	 590.5309	 
17.71	 0.47	 590.6869	 
17.71	 0.46	 590.8280	 
17.71	 0.47	 590.9840	 
17.71	 0.46	 591.1249	 
17.71	 0.47	 591.2809	 
17.71	 0.47	 591.4220	 
17.71	 0.47	 591.5929	 
17.71	 0.47	 591.7340	 
17.71	 0.47	 591.8900	 
17.71	 0.46	 592.0309	 
17.71	 0.46	 592.1869	 
17.71	 0.47	 592.3280	 
17.71	 0.47	 592.4840	 
17.71	 0.46	 592.6249	 
17.71	 0.47	 592.7970	 
17.71	 0.46	 592.9369	 
17.71	 0.46	 593.0929	 
17.71	 0.46	 593.2340	 
17.71	 0.47	 593.3900	 
17.71	 0.47	 593.5309	 
17.71	 0.46	 593.7030	 
17.71	 0.47	 593.8429	 
17.71	 0.47	 594.0150	 
17.71	 0.47	 594.1559	 
17.71	 0.46	 594.3280	 
17.71	 0.47	 594.4679	 
17.71	 0.47	 594.6400	 
17.71	 0.47	 594.7809	 
17.71	 0.47	 594.9530	 
17.71	 0.47	 595.0929	 
17.71	 0.47	 595.2499	 
17.71	 0.47	 595.3900	 
17.71	 0.47	 595.5470	 
17.71	 0.47	 595.6869	 
17.71	 0.47	 595.8429	 
17.71	 0.47	 595.9840	 
17.71	 0.47	 596.1400	 
17.71	 0.46	 596.2809	 
17.71	 0.47	 596.4369	 
17.71	 0.47	 596.5780	 
17.71	 0.46	 596.7340	 
17.71	 0.47	 596.8749	 
17.71	 0.47	 597.0470	 
17.71	 0.47	 597.1869	 
17.71	 0.47	 597.3429	 
17.71	 0.47	 597.4840	 
17.71	 0.46	 597.6400	 
17.71	 0.47	 597.7809	 
17.71	 0.47	 597.9530	 
17.71	 0.46	 598.0929	 
17.71	 0.47	 598.2650	 
17.71	 0.47	 598.4059	 
17.71	 0.46	 598.5780	 
17.71	 0.47	 598.7179	 
17.71	 0.47	 598.8900	 
17.71	 0.47	 599.0309	 
17.71	 0.47	 599.1869	 
17.70	 0.47	 599.3280	 
17.71	 0.47	 599.4840	 
17.71	 0.46	 599.6249	 
17.71	 0.46	 599.7970	 
17.70	 0.46	 599.9369	 
17.71	 0.46	 600.0929	 
17.71	 0.47	 600.2340	 
17.70	 0.46	 600.3900	 
17.70	 0.46	 600.5309	 
17.71	 0.46	 600.6869	 
17.71	 0.47	 600.8280	 
17.71	 0.46	 600.9999	 
17.71	 0.47	 601.1400	 
17.71	 0.47	 601.2970	 
17.71	 0.47	 601.4369	 
17.71	 0.47	 601.5929	 
17.71	 0.47	 601.7340	 
17.71	 0.47	 601.8900	 
17.71	 0.46	 602.0309	 
17.71	 0.47	 602.2030	 
17.70	 0.46	 602.3429	 
17.70	 0.47	 602.5150	 
17.70	 0.46	 602.6559	 
17.70	 0.47	 602.8280	 
17.70	 0.47	 602.9679	 
17.70	 0.46	 603.1249	 
17.70	 0.47	 603.2650	 
17.70	 0.47	 603.4220	 
17.70	 0.46	 603.5619	 
17.70	 0.47	 603.7179	 
17.70	 0.47	 603.8590	 
17.70	 0.47	 604.0150	 
17.70	 0.47	 604.1559	 
17.70	 0.46	 604.3280	 
17.70	 0.47	 604.4679	 
17.70	 0.47	 604.6400	 
17.70	 0.47	 604.7809	 
17.70	 0.46	 604.9530	 
17.70	 0.46	 605.0929	 
17.70	 0.46	 605.2650	 
17.70	 0.47	 605.4059	 
17.70	 0.47	 605.5619	 
17.70	 0.47	 605.7030	 
17.70	 0.47	 605.8590	 
17.70	 0.47	 605.9999	 
17.70	 0.46	 606.1559	 
17.70	 0.46	 606.2970	 
17.70	 0.47	 606.4679	 
17.70	 0.46	 606.6090	 
17.70	 0.46	 606.7650	 
17.70	 0.47	 606.9059	 
17.70	 0.46	 607.0619	 
17.70	 0.47	 607.2030	 
17.70	 0.47	 607.3749	 
17.70	 0.46	 607.5150	 
17.70	 0.46	 607.6720	 
17.70	 0.47	 607.8119	 
17.70	 0.47	 607.9679	 
17.70	 0.47	 608.1090	 
17.70	 0.46	 608.2650	 
16.04	 0.43	 608.4059	 
13.13	 0.36	 608.5780	 
10.32	 0.30	 608.7179	 
7.55	 0.24	 608.8900	 
4.62	 0.18	 609.0309	 
1.83	 0.11	 609.2030	 
1.17	 0.10	 609.3429	 
3.93	 0.16	 609.5150	 
6.73	 0.22	 609.6559	 
9.55	 0.28	 609.8280	 
11.73	 0.34	 609.9679	 
14.59	 0.39	 610.1249	 
17.36	 0.46	 610.2650	 
17.75	 0.46	 610.4220	 
17.76	 0.46	 610.5619	 
17.71	 0.46	 610.7179	 
17.71	 0.46	 610.8590	 
17.72	 0.46	 611.0150	 
17.72	 0.46	 611.1559	 
17.72	 0.47	 611.3119	 
17.73	 0.46	 611.4530	 
17.73	 0.47	 611.6249	 
17.73	 0.46	 611.7650	 
17.73	 0.46	 611.9220	 
17.73	 0.47	 612.0619	 
17.73	 0.47	 612.2179	 
17.73	 0.47	 612.3590	 
17.73	 0.47	 612.5150	 
17.73	 0.46	 612.6559	 
17.73	 0.47	 612.8280	 
17.73	 0.46	 612.9679	 
17.73	 0.46	 613.1400	 
17.73	 0.47	 613.2809	 
17.73	 0.47	 613.4530	 
17.73	 0.47	 613.5929	 
17.73	 0.46	 613.7650	 
17.73	 0.47	 613.9059	 
17.73	 0.46	 614.0619	 
17.73	 0.47	 614.2030	 
17.73	 0.46	 614.3590	 
17.73	 0.47	 614.4999	 
17.73	 0.46	 614.6720	 
17.73	 0.47	 614.8119	 
17.73	 0.46	 614.9679	 
17.73	 0.46	 615.1090	 
17.73	 0.46	 615.2650	 
17.73	 0.47	 615.4059	 
17.73	 0.47	 615.5619	 
17.73	 0.47	 615.7030	 
17.73	 0.47	 615.8749	 
17.73	 0.46	 616.0150	 
17.73	 0.47	 616.1720	 
17.73	 0.47	 616.3119	 
17.73	 0.47	 616.4679	 
17.73	 0.47	 616.6090	 
17.73	 0.46	 616.7650	 
17.73	 0.47	 616.9059	 
17.73	 0.47	 617.0619	 
17.73	 0.47	 617.2030	 
17.73	 0.46	 617.3749	 
17.73	 0.47	 617.5150	 
17.73	 0.46	 617.6720	 
17.73	 0.47	 617.8119	 
17.73	 0.47	 617.9840	 
17.73	 0.47	 618.1249	 
17.73	 0.46	 618.2970	 
17.73	 0.47	 618.4369	 
17.73	 0.47	 618.6090	 
17.73	 0.46	 618.7809	 
17.73	 0.46	 618.9220	 
17.73	 0.47	 619.0619	 
17.73	 0.46	 619.2030	 
17.73	 0.47	 619.3429	 
17.72	 0.47	 619.5150	 
17.72	 0.47	 619.6559	 
17.72	 0.47	 619.8280	 
17.72	 0.47	 619.9679	 
17.72	 0.46	 620.1400	 
17.72	 0.46	 620.2809	 
17.72	 0.47	 620.4530	 
17.72	 0.47	 620.5929	 
17.72	 0.46	 620.7650	 
17.72	 0.46	 620.9369	 
17.72	 0.47	 621.0929	 
17.72	 0.47	 621.2340	 
17.72	 0.47	 621.3749	 
17.72	 0.47	 621.5150	 
17.72	 0.47	 621.6559	 
17.72	 0.47	 621.7970	 
17.72	 0.47	 621.9679	 
17.72	 0.46	 622.1090	 
17.72	 0.47	 622.2650	 
17.72	 0.46	 622.4059	 
17.72	 0.46	 622.5619	 
17.72	 0.46	 622.7030	 
17.72	 0.47	 622.8749	 
17.72	 0.47	 623.0150	 
17.72	 0.47	 623.1720	 
17.72	 0.46	 623.3119	 
17.72	 0.47	 623.4679	 
17.72	 0.46	 623.6090	 
17.72	 0.47	 623.7650	 
17.72	 0.46	 623.9059	 
17.72	 0.47	 624.0780	 
17.72	 0.47	 624.2179	 
17.72	 0.46	 624.3900	 
17.72	 0.47	 624.5309	 
17.72	 0.47	 624.7030	 
17.72	 0.47	 624.8429	 
17.72	 0.46	 624.9999	 
17.72	 0.47	 625.1400	 
17.72	 0.47	 625.2970	 
17.72	 0.46	 625.4369	 
17.72	 0.47	 625.5929	 
17.72	 0.47	 625.7340	 
17.72	 0.46	 625.8900	 
17.72	 0.46	 626.0309	 
17.72	 0.47	 626.1869	 
17.72	 0.47	 626.3280	 
17.72	 0.47	 626.4999	 
17.72	 0.47	 626.6400	 
17.72	 0.46	 626.7970	 
17.72	 0.47	 626.9369	 
17.72	 0.47	 627.0929	 
17.72	 0.47	 627.2340	 
17.72	 0.47	 627.3900	 
17.72	 0.47	 627.5309	 
17.72	 0.47	 627.6869	 
17.72	 0.47	 627.8280	 
17.72	 0.46	 627.9840	 
17.72	 0.47	 628.1249	 
17.72	 0.47	 628.2809	 
17.72	 0.47	 628.4220	 
17.72	 0.47	 628.5929	 
17.72	 0.47	 628.7340	 
17.72	 0.47	 628.8900	 
17.72	 0.46	 629.0309	 
17.72	 0.47	 629.2030	 
17.72	 0.46	 629.3429	 
17.72	 0.47	 629.5150	 
17.72	 0.47	 629.6559	 
17.72	 0.47	 629.8119	 
17.72	 0.46	 629.9530	 
17.72	 0.47	 630.1090	 
17.72	 0.47	 630.2499	 
17.72	 0.46	 630.4059	 
17.72	 0.47	 630.5470	 
17.72	 0.46	 630.7179	 
17.72	 0.47	 630.8590	 
17.72	 0.47	 631.0150	 
17.72	 0.47	 631.1559	 
17.72	 0.46	 631.3119	 
17.72	 0.47	 631.4530	 
17.72	 0.47	 631.6249	 
17.72	 0.46	 631.7650	 
17.72	 0.47	 631.9220	 
17.72	 0.46	 632.0619	 
17.72	 0.47	 632.2179	 
17.72	 0.46	 632.3590	 
17.72	 0.47	 632.5150	 
17.72	 0.47	 632.6559	 
17.72	 0.47	 632.8280	 
17.72	 0.47	 632.9679	 
17.72	 0.46	 633.1400	 
17.72	 0.47	 633.2809	 
17.72	 0.47	 633.4530	 
17.72	 0.47	 633.6249	 
17.72	 0.47	 633.7650	 
17.72	 0.46	 633.9059	 
17.72	 0.47	 634.0470	 
17.72	 0.46	 634.1869	 
17.72	 0.47	 634.3429	 
17.72	 0.47	 634.4840	 
17.72	 0.46	 634.6400	 
17.72	 0.46	 634.7809	 
17.72	 0.47	 634.9530	 
17.72	 0.47	 635.0929	 
17.72	 0.46	 635.2650	 
17.72	 0.47	 635.4059	 
17.72	 0.47	 635.5619	 
17.72	 0.47	 635.7030	 
17.72	 0.46	 635.8590	 
17.72	 0.47	 635.9999	 
17.72	 0.47	 636.1559	 
17.72	 0.47	 636.2970	 
17.72	 0.47	 636.4679	 
17.72	 0.47	 636.6090	 
17.72	 0.47	 636.7650	 
17.72	 0.47	 636.9059	 
17.72	 0.47	 637.0619	 
17.72	 0.47	 637.2030	 
17.72	 0.47	 637.3590	 
17.72	 0.47	 637.4999	 
17.72	 0.47	 637.6720	 
17.72	 0.47	 637.8119	 
17.72	 0.46	 637.9679	 
17.72	 0.47	 638.1090	 
17.72	 0.47	 638.2650	 
17.72	 0.47	 638.4059	 
17.72	 0.47	 638.5619	 
17.72	 0.47	 638.7030	 
17.72	 0.47	 638.8590	 
17.72	 0.46	 638.9999	 
17.72	 0.46	 639.1720	 
17.72	 0.47	 639.3119	 
17.72	 0.47	 639.4679	 
17.72	 0.47	 639.6090	 
17.72	 0.47	 639.7650	 
17.72	 0.47	 639.9059	 
17.72	 0.47	 640.0780	 
17.72	 0.46	 640.2179	 
17.72	 0.47	 640.3900	 
17.72	 0.47	 640.5309	 
17.72	 0.47	 640.6869	 
17.72	 0.47	 640.8280	 
17.72	 0.47	 640.9999	 
17.72	 0.47	 641.1400	 
17.72	 0.46	 641.2970	 
17.72	 0.46	 641.4369	 
17.72	 0.47	 641.5929	 
17.72	 0.47	 641.7340	 
17.72	 0.47	 641.9059	 
17.72	 0.46	 642.0470	 
17.72	 0.47	 642.2179	 
17.72	 0.46	 642.3590	 
17.72	 0.47	 642.5150	 
17.72	 0.47	 642.6559	 
17.72	 0.47	 642.8280	 
17.72	 0.46	 642.9679	 
17.72	 0.47	 643.1400	 
17.72	 0.47	 643.2809	 
17.72	 0.47	 643.4530	 
17.72	 0.47	 643.5929	 
17.72	 0.46	 643.7650	 
17.72	 0.47	 643.9059	 
17.72	 0.47	 644.0780	 
17.72	 0.47	 644.2499	 
17.72	 0.47	 644.4059	 
17.72	 0.46	 644.5470	 
17.72	 0.47	 644.6869	 
17.72	 0.47	 644.8280	 
17.72	 0.47	 644.9840	 
17.72	 0.47	 645.1249	 
17.72	 0.47	 645.2970	 
17.72	 0.47	 645.4369	 
17.72	 0.46	 645.5929	 
17.72	 0.47	 645.7340	 
17.72	 0.47	 645.8900	 
17.72	 0.47	 646.0309	 
17.72	 0.47	 646.1869	 
17.72	 0.47	 646.3280	 
17.72	 0.47	 646.4999	 
17.72	 0.47	 646.6400	 
17.72	 0.47	 646.7970	 
17.72	 0.46	 646.9369	 
17.72	 0.46	 647.0929	 
17.72	 0.47	 647.2340	 
17.72	 0.46	 647.3900	 
17.72	 0.47	 647.5309	 
17.73	 0.47	 647.6869	 
17.73	 0.47	 647.8280	 
17.73	 0.46	 647.9999	 
17.72	 0.46	 648.1400	 
17.72	 0.47	 648.2970	 
17.72	 0.46	 648.4369	 
17.72	 0.46	 648.5929	 
17.72	 0.47	 648.7340	 
17.72	 0.47	 648.8900	 
17.72	 0.46	 649.0309	 
17.72	 0.47	 649.2030	 
17.72	 0.47	 649.3429	 
17.72	 0.47	 649.4999	 
17.72	 0.47	 649.6400	 
17.72	 0.47	 649.7970	 
17.73	 0.47	 649.9369	 
17.73	 0.47	 650.0929	 
17.72	 0.47	 650.2340	 
17.73	 0.47	 650.3900	 
17.72	 0.47	 650.5309	 
17.73	 0.47	 650.7030	 
17.72	 0.47	 650.8429	 
17.72	 0.47	 651.0150	 
17.72	 0.47	 651.1559	 
17.73	 0.47	 651.3280	 
17.73	 0.47	 651.4679	 
17.73	 0.47	 651.6400	 
17.73	 0.46	 651.7809	 
17.73	 0.47	 651.9530	 
17.73	 0.47	 652.0929	 
17.73	 0.47	 652.2650	 
17.73	 0.47	 652.4059	 
17.73	 0.47	 652.5619	 
17.73	 0.47	 652.7030	 
17.73	 0.47	 652.8749	 
17.73	 0.47	 653.0150	 
17.73	 0.47	 653.1720	 
17.73	 0.47	 653.3119	 
17.73	 0.47	 653.4679	 
17.73	 0.47	 653.6090	 
17.73	 0.47	 653.7650	 
17.72	 0.47	 653.9059	 
17.73	 0.47	 654.0780	 
17.73	 0.47	 654.2179	 
17.72	 0.46	 654.3900	 
17.73	 0.47	 654.5309	 
17.72	 0.47	 654.7030	 
17.72	 0.47	 654.8590	 
17.72	 0.47	 655.0150	 
17.73	 0.47	 655.1559	 
17.73	 0.46	 655.3280	 
17.73	 0.47	 655.4679	 
17.73	 0.47	 655.6249	 
17.72	 0.47	 655.7650	 
17.72	 0.47	 655.9220	 
17.72	 0.47	 656.0619	 
17.72	 0.47	 656.2179	 
17.72	 0.47	 656.3590	 
17.72	 0.47	 656.5150	 
17.72	 0.47	 656.6559	 
17.72	 0.46	 656.8119	 
17.72	 0.47	 656.9530	 
17.72	 0.46	 657.1249	 
17.72	 0.47	 657.2650	 
17.72	 0.47	 657.4220	 
17.72	 0.46	 657.5619	 
17.72	 0.47	 657.7179	 
17.72	 0.47	 657.8590	 
17.72	 0.47	 658.0150	 
17.72	 0.47	 658.1559	 
17.72	 0.46	 658.3119	 
17.72	 0.46	 658.4530	 
17.72	 0.47	 658.6090	 
17.72	 0.47	 658.7499	 
17.72	 0.46	 658.9059	 
17.72	 0.47	 659.0470	 
17.72	 0.47	 659.2030	 
17.72	 0.47	 659.3429	 
17.72	 0.47	 659.5150	 
17.72	 0.46	 659.6559	 
17.72	 0.47	 659.8280	 
17.72	 0.46	 659.9679	 
17.72	 0.47	 660.1400	 
17.72	 0.47	 660.2809	 
17.72	 0.47	 660.4369	 
17.72	 0.47	 660.5780	 
17.72	 0.47	 660.7340	 
17.72	 0.47	 660.8749	 
17.72	 0.47	 661.0470	 
17.72	 0.47	 661.1869	 
17.72	 0.47	 661.3429	 
17.72	 0.47	 661.4840	 
17.72	 0.47	 661.6400	 
17.72	 0.47	 661.7809	 
17.72	 0.47	 661.9530	 
17.72	 0.47	 662.0929	 
17.72	 0.47	 662.2650	 
17.72	 0.46	 662.4059	 
17.72	 0.47	 662.5619	 
17.72	 0.47	 662.7030	 
17.72	 0.47	 662.8749	 
17.72	 0.46	 663.0150	 
17.72	 0.47	 663.1720	 
17.72	 0.46	 663.3119	 
17.72	 0.46	 663.4679	 
17.72	 0.47	 663.6090	 
17.72	 0.47	 663.7809	 
17.72	 0.47	 663.9220	 
17.72	 0.47	 664.0929	 
17.72	 0.47	 664.2340	 
17.72	 0.47	 664.3900	 
17.72	 0.46	 664.5309	 
17.72	 0.47	 664.7030	 
17.72	 0.46	 664.8429	 
17.72	 0.47	 665.0150	 
17.72	 0.47	 665.1559	 
17.72	 0.47	 665.3280	 
17.72	 0.47	 665.4840	 
17.72	 0.46	 665.6400	 
17.72	 0.47	 665.7809	 
17.72	 0.47	 665.9530	 
17.72	 0.47	 666.0929	 
17.72	 0.47	 666.2650	 
17.72	 0.47	 666.4059	 
17.72	 0.47	 666.5780	 
17.72	 0.47	 666.7179	 
17.72	 0.47	 666.8900	 
17.72	 0.47	 667.0309	 
17.72	 0.47	 667.2030	 
17.72	 0.46	 667.3429	 
17.72	 0.46	 667.5150	 
17.72	 0.47	 667.6559	 
17.72	 0.46	 667.8280	 
17.72	 0.47	 667.9679	 
17.72	 0.47	 668.1400	 
17.72	 0.47	 668.2809	 
17.72	 0.47	 668.4530	 
17.72	 0.46	 668.6249	 
17.72	 0.47	 668.7650	 
17.72	 0.47	 668.9059	 
17.72	 0.47	 669.0470	 
17.72	 0.47	 669.1869	 
17.72	 0.47	 669.3429	 
17.72	 0.47	 669.4840	 
17.72	 0.47	 669.6400	 
17.72	 0.46	 669.7809	 
17.72	 0.47	 669.9530	 
17.72	 0.47	 670.0929	 
17.72	 0.46	 670.2650	 
17.72	 0.47	 670.4059	 
17.72	 0.47	 670.5780	 
17.72	 0.47	 670.7499	 
17.72	 0.47	 670.8900	 
17.72	 0.46	 671.0309	 
17.72	 0.47	 671.2030	 
17.72	 0.47	 671.3429	 
17.72	 0.47	 671.5150	 
17.72	 0.46	 671.6559	 
17.72	 0.46	 671.8429	 
17.72	 0.46	 671.9840	 
17.72	 0.47	 672.1400	 
17.72	 0.47	 672.2809	 
17.72	 0.47	 672.4530	 
17.72	 0.47	 672.5929	 
17.72	 0.47	 672.7650	 
17.72	 0.47	 672.9059	 
17.72	 0.46	 673.0780	 
17.72	 0.47	 673.2179	 
17.72	 0.47	 673.3900	 
17.72	 0.47	 673.5309	 
17.72	 0.47	 673.7030	 
17.72	 0.47	 673.8749	 
17.72	 0.46	 674.0150	 
17.72	 0.47	 674.1559	 
17.72	 0.46	 674.3119	 
17.72	 0.46	 674.4530	 
17.72	 0.47	 674.5929	 
17.72	 0.47	 674.7340	 
17.72	 0.46	 674.8900	 
17.72	 0.47	 675.0309	 
17.72	 0.46	 675.1869	 
17.72	 0.47	 675.3280	 
17.72	 0.47	 675.4840	 
17.72	 0.47	 675.6249	 
17.72	 0.47	 675.7809	 
17.72	 0.47	 675.9220	 
17.72	 0.47	 676.0780	 
17.72	 0.47	 676.2179	 
17.72	 0.46	 676.3900	 
17.72	 0.47	 676.5309	 
17.72	 0.47	 676.7030	 
17.72	 0.46	 676.8429	 
17.72	 0.47	 677.0150	 
17.72	 0.47	 677.1559	 
17.72	 0.46	 677.3280	 
17.72	 0.46	 677.4679	 
17.72	 0.47	 677.6400	 
17.72	 0.47	 677.7809	 
17.72	 0.47	 677.9369	 
17.72	 0.47	 678.0780	 
17.72	 0.47	 678.2340	 
17.72	 0.46	 678.3749	 
17.72	 0.47	 678.5470	 
17.72	 0.46	 678.6869	 
17.72	 0.46	 678.8429	 
17.72	 0.47	 678.9840	 
17.72	 0.47	 679.1400	 
17.72	 0.47	 679.2809	 
17.72	 0.46	 679.4530	 
17.72	 0.47	 679.5929	 
17.72	 0.46	 679.7650	 
17.72	 0.47	 679.9059	 
17.72	 0.47	 680.0780	 
17.72	 0.47	 680.2499	 
17.72	 0.47	 680.3900	 
17.72	 0.47	 680.5309	 
17.72	 0.47	 680.7030	 
17.72	 0.46	 680.8429	 
17.72	 0.47	 680.9999	 
17.72	 0.46	 681.1400	 
17.72	 0.47	 681.2970	 
17.72	 0.47	 681.4369	 
17.72	 0.47	 681.5929	 
17.72	 0.47	 681.7340	 
17.72	 0.47	 681.8900	 
17.72	 0.47	 682.0309	 
17.72	 0.47	 682.1869	 
17.72	 0.47	 682.3280	 
17.72	 0.46	 682.4840	 
17.72	 0.47	 682.6249	 
17.72	 0.47	 682.7970	 
17.72	 0.47	 682.9369	 
17.72	 0.47	 683.0929	 
17.72	 0.46	 683.2340	 
17.72	 0.47	 683.3900	 
17.72	 0.47	 683.5309	 
17.72	 0.47	 683.6869	 
17.72	 0.46	 683.8280	 
17.72	 0.46	 683.9840	 
17.72	 0.46	 684.1249	 
17.72	 0.47	 684.2809	 
17.72	 0.46	 684.4220	 
17.72	 0.47	 684.5929	 
17.72	 0.46	 684.7340	 
17.72	 0.47	 684.8900	 
17.72	 0.46	 685.0309	 
17.72	 0.47	 685.1869	 
17.72	 0.46	 685.3280	 
17.72	 0.47	 685.4840	 
17.72	 0.46	 685.6249	 
17.72	 0.47	 685.7970	 
17.72	 0.46	 685.9369	 
17.72	 0.47	 686.0929	 
17.72	 0.46	 686.2340	 
17.72	 0.47	 686.3900	 
17.72	 0.47	 686.5309	 
17.72	 0.46	 686.6869	 
17.72	 0.46	 686.8280	 
17.72	 0.47	 686.9840	 
17.72	 0.47	 687.1249	 
17.72	 0.47	 687.2970	 
17.72	 0.47	 687.4369	 
17.72	 0.47	 687.5929	 
17.72	 0.47	 687.7340	 
17.72	 0.46	 687.8900	 
17.72	 0.46	 688.0309	 
17.72	 0.47	 688.1869	 
17.72	 0.47	 688.3280	 
17.72	 0.46	 688.4999	 
17.72	 0.47	 688.6400	 
17.72	 0.47	 688.7970	 
17.72	 0.47	 688.9369	 
17.72	 0.47	 689.0929	 
17.72	 0.47	 689.2340	 
17.72	 0.47	 689.3900	 
17.72	 0.46	 689.5309	 
17.72	 0.47	 689.7030	 
17.72	 0.47	 689.8429	 
17.72	 0.46	 690.0150	 
17.72	 0.47	 690.1559	 
17.72	 0.46	 690.3280	 
17.72	 0.47	 690.4679	 
17.72	 0.47	 690.6249	 
17.72	 0.47	 690.7650	 
17.72	 0.47	 690.9220	 
17.72	 0.47	 691.0619	 
17.72	 0.47	 691.2179	 
17.72	 0.47	 691.3590	 
17.72	 0.47	 691.5150	 
17.72	 0.47	 691.6559	 
17.72	 0.47	 691.8119	 
17.72	 0.46	 691.9530	 
17.72	 0.47	 692.1249	 
17.72	 0.47	 692.2650	 
17.72	 0.47	 692.4220	 
17.72	 0.47	 692.5619	 
17.72	 0.46	 692.7179	 
17.72	 0.46	 692.8590	 
17.72	 0.46	 693.0150	 
17.72	 0.47	 693.1559	 
17.72	 0.47	 693.3119	 
17.72	 0.47	 693.4530	 
17.72	 0.47	 693.6090	 
17.72	 0.47	 693.7499	 
17.72	 0.47	 693.9059	 
17.72	 0.47	 694.0470	 
17.72	 0.47	 694.2030	 
17.72	 0.47	 694.3429	 
17.72	 0.47	 694.5150	 
17.72	 0.47	 694.6559	 
17.72	 0.47	 694.8280	 
17.72	 0.46	 694.9679	 
17.72	 0.47	 695.1400	 
17.72	 0.47	 695.2809	 
17.72	 0.47	 695.4369	 
17.72	 0.47	 695.5780	 
17.72	 0.47	 695.7340	 
17.72	 0.47	 695.8749	 
17.72	 0.47	 696.0470	 
17.72	 0.47	 696.1869	 
17.72	 0.46	 696.3429	 
17.72	 0.47	 696.4840	 
17.72	 0.47	 696.6400	 
17.72	 0.47	 696.7809	 
17.72	 0.47	 696.9530	 
17.72	 0.46	 697.0929	 
17.72	 0.47	 697.2650	 
17.72	 0.47	 697.4059	 
17.72	 0.46	 697.5619	 
17.72	 0.47	 697.7030	 
17.72	 0.47	 697.8749	 
17.72	 0.47	 698.0150	 
17.72	 0.46	 698.1720	 
17.72	 0.47	 698.3119	 
17.72	 0.47	 698.4679	 
17.72	 0.47	 698.6090	 
17.72	 0.47	 698.7650	 
17.72	 0.47	 698.9059	 
17.72	 0.47	 699.0780	 
17.72	 0.47	 699.2179	 
17.72	 0.47	 699.3749	 
17.72	 0.47	 699.5150	 
17.72	 0.47	 699.6720	 
17.72	 0.46	 699.8119	 
17.72	 0.47	 699.9679	 
17.72	 0.47	 700.1090	 
17.72	 0.47	 700.2650	 
17.72	 0.47	 700.4059	 
17.72	 0.47	 700.5619	 
17.72	 0.46	 700.7030	 
17.72	 0.46	 700.8749	 
17.72	 0.46	 701.0150	 
17.72	 0.47	 701.1720	 
17.72	 0.47	 701.3119	 
17.72	 0.46	 701.4679	 
17.72	 0.47	 701.6090	 
17.72	 0.47	 701.7650	 
17.72	 0.46	 701.9059	 
17.72	 0.47	 702.0619	 
17.72	 0.46	 702.2030	 
17.72	 0.47	 702.3749	 
17.72	 0.47	 702.5150	 
17.72	 0.46	 702.6720	 
17.72	 0.47	 702.8119	 
17.72	 0.47	 702.9679	 
17.72	 0.47	 703.1090	 
17.72	 0.47	 703.2650	 
17.72	 0.47	 703.4059	 
17.72	 0.47	 703.5780	 
17.72	 0.46	 703.7179	 
17.72	 0.47	 703.8900	 
17.72	 0.47	 704.0309	 
17.72	 0.47	 704.1869	 
17.72	 0.47	 704.3280	 
17.72	 0.46	 704.4840	 
17.72	 0.47	 704.6249	 
17.72	 0.47	 704.7970	 
17.72	 0.47	 704.9369	 
17.72	 0.47	 705.0929	 
17.72	 0.47	 705.2340	 
17.72	 0.46	 705.3900	 
17.72	 0.46	 705.5309	 
17.72	 0.46	 705.7030	 
17.72	 0.46	 705.8429	 
17.72	 0.47	 706.0150	 
17.72	 0.47	 706.1559	 
17.72	 0.47	 706.3280	 
17.72	 0.46	 706.4679	 
17.72	 0.47	 706.6400	 
17.72	 0.47	 706.7809	 
17.72	 0.46	 706.9530	 
17.72	 0.47	 707.0929	 
17.72	 0.47	 707.2499	 
17.72	 0.46	 707.3900	 
17.72	 0.47	 707.5470	 
17.72	 0.47	 707.6869	 
17.72	 0.47	 707.8429	 
17.72	 0.47	 707.9840	 
17.72	 0.47	 708.1400	 
17.72	 0.47	 708.2809	 
17.72	 0.46	 708.4530	 
17.72	 0.47	 708.5929	 
17.72	 0.46	 708.7650	 
17.72	 0.47	 708.9059	 
17.72	 0.47	 709.0780	 
17.72	 0.47	 709.2179	 
17.72	 0.46	 709.3900	 
17.72	 0.47	 709.5309	 
17.72	 0.46	 709.6869	 
17.72	 0.46	 709.8280	 
17.72	 0.46	 709.9840	 
17.72	 0.47	 710.1249	 
17.72	 0.47	 710.2970	 
17.72	 0.47	 710.4369	 
17.72	 0.47	 710.5929	 
17.72	 0.47	 710.7340	 
17.72	 0.47	 710.8900	 
17.72	 0.47	 711.0309	 
17.72	 0.47	 711.1869	 
17.72	 0.47	 711.3280	 
17.72	 0.46	 711.4840	 
17.72	 0.47	 711.6249	 
17.72	 0.47	 711.7970	 
17.71	 0.47	 711.9369	 
17.71	 0.47	 712.0929	 
17.71	 0.47	 712.2340	 
17.71	 0.46	 712.3900	 
17.71	 0.46	 712.5309	 
17.71	 0.47	 712.6869	 
17.71	 0.47	 712.8280	 
17.71	 0.47	 712.9999	 
17.71	 0.47	 713.1400	 
17.71	 0.47	 713.2970	 
17.71	 0.47	 713.4369	 
17.71	 0.47	 713.5929	 
17.71	 0.46	 713.7340	 
17.71	 0.47	 713.8900	 
17.71	 0.46	 714.0309	 
17.71	 0.46	 714.2030	 
17.71	 0.47	 714.3429	 
17.71	 0.47	 714.5150	 
17.71	 0.47	 714.6559	 
17.71	 0.47	 714.8280	 
17.71	 0.46	 714.9679	 
17.71	 0.47	 715.1249	 
17.71	 0.46	 715.2650	 
17.71	 0.46	 715.4220	 
17.71	 0.47	 715.5619	 
17.71	 0.46	 715.7179	 
17.71	 0.47	 715.8590	 
17.71	 0.46	 716.0150	 
17.71	 0.46	 716.1559	 
17.71	 0.46	 716.3119	 
17.71	 0.46	 716.4530	 
17.71	 0.46	 716.6249	 
17.71	 0.47	 716.7650	 
17.71	 0.47	 716.9220	 
17.71	 0.47	 717.0619	 
17.71	 0.47	 717.2179	 
17.71	 0.46	 717.3590	 
17.71	 0.46	 717.5150	 
17.71	 0.46	 717.6559	 
17.71	 0.46	 717.8280	 
17.71	 0.46	 717.9679	 
17.71	 0.47	 718.1400	 
17.71	 0.47	 718.2809	 
17.71	 0.47	 718.4530	 
17.71	 0.47	 718.5929	 
17.71	 0.46	 718.7650	 
17.71	 0.47	 718.9059	 
17.71	 0.46	 719.0619	 
17.71	 0.47	 719.2030	 
17.71	 0.46	 719.3590	 
17.71	 0.47	 719.4999	 
17.71	 0.47	 719.6720	 
17.71	 0.47	 719.8119	 
17.71	 0.47	 719.9679	 
17.71	 0.47	 720.1090	 
17.71	 0.47	 720.2650	 
17.71	 0.47	 720.4059	 
17.71	 0.47	 720.5619	 
17.71	 0.47	 720.7030	 
17.71	 0.47	 720.8749	 
17.71	 0.47	 721.0150	 
17.71	 0.46	 721.1720	 
17.71	 0.46	 721.3119	 
17.71	 0.47	 721.4679	 
17.71	 0.46	 721.6090	 
17.71	 0.46	 721.7650	 
17.71	 0.47	 721.9059	 
17.71	 0.47	 722.0619	 
17.71	 0.47	 722.2030	 
17.71	 0.47	 722.3749	 
17.71	 0.47	 722.5150	 
17.71	 0.47	 722.6720	 
17.71	 0.46	 722.8119	 
17.71	 0.47	 722.9840	 
17.71	 0.47	 723.1249	 
17.71	 0.47	 723.2970	 
17.71	 0.47	 723.4369	 
17.71	 0.46	 723.6090	 
17.71	 0.47	 723.7499	 
17.71	 0.47	 723.9059	 
17.71	 0.46	 724.0470	 
17.71	 0.47	 724.2030	 
17.71	 0.47	 724.3429	 
17.71	 0.47	 724.5150	 
17.71	 0.46	 724.6559	 
17.71	 0.47	 724.8119	 
17.71	 0.46	 724.9530	 
17.71	 0.47	 725.1090	 
17.71	 0.46	 725.2499	 
17.71	 0.46	 725.4059	 
17.71	 0.46	 725.5470	 
17.71	 0.46	 725.7179	 
17.71	 0.46	 725.8590	 
17.71	 0.47	 726.0309	 
17.71	 0.47	 726.1720	 
17.71	 0.47	 726.3429	 
17.71	 0.46	 726.4840	 
17.71	 0.47	 726.6400	 
17.71	 0.46	 726.7809	 
17.71	 0.47	 726.9369	 
17.71	 0.47	 727.0780	 
17.71	 0.47	 727.2499	 
17.71	 0.46	 727.3900	 
17.71	 0.47	 727.5470	 
17.71	 0.47	 727.6869	 
17.71	 0.47	 727.8429	 
17.71	 0.46	 727.9840	 
17.71	 0.46	 728.1400	 
17.71	 0.47	 728.2809	 
17.71	 0.47	 728.4530	 
17.71	 0.46	 728.5929	 
17.71	 0.47	 728.7650	 
17.71	 0.47	 728.9059	 
17.71	 0.47	 729.0619	 
17.71	 0.47	 729.2030	 
17.71	 0.47	 729.3749	 
17.71	 0.46	 729.5150	 
17.71	 0.46	 729.6720	 
17.71	 0.47	 729.8119	 
15.24	 0.41	 729.9679	 
13.09	 0.36	 730.1090	 
10.22	 0.30	 730.2650	 
7.47	 0.24	 730.4059	 
4.56	 0.17	 730.5780	 
1.72	 0.11	 730.7179	 
0.44	 0.08	 730.8749	 
3.27	 0.14	 731.0150	 
6.10	 0.20	 731.1720	 
8.91	 0.26	 731.3119	 
11.04	 0.31	 731.4679	 
13.89	 0.38	 731.6090	 
16.75	 0.44	 731.7650	 
17.68	 0.46	 731.9059	 
17.78	 0.47	 732.0619	 
17.71	 0.46	 732.2030	 
17.70	 0.46	 732.3749	 
17.71	 0.47	 732.5150	 
17.72	 0.46	 732.6720	 
17.72	 0.47	 732.8119	 
17.72	 0.47	 732.9679	 
17.73	 0.46	 733.1090	 
17.73	 0.46	 733.2650	 
17.73	 0.47	 733.4059	 
17.73	 0.46	 733.5780	 
17.73	 0.46	 733.7179	 
17.73	 0.46	 733.8900	 
17.73	 0.47	 734.0309	 
17.73	 0.46	 734.2030	 
17.73	 0.47	 734.3429	 
17.73	 0.47	 734.5150	 
17.73	 0.47	 734.6559	 
17.73	 0.47	 734.8119	 
17.73	 0.47	 734.9530	 
17.73	 0.47	 735.1090	 
17.73	 0.46	 735.2499	 
17.73	 0.47	 735.4220	 
17.73	 0.46	 735.5619	 
17.73	 0.46	 735.7179	 
17.73	 0.47	 735.8590	 
17.73	 0.47	 736.0150	 
17.73	 0.47	 736.1559	 
17.73	 0.46	 736.3280	 
17.73	 0.47	 736.4679	 
17.73	 0.47	 736.6400	 
17.73	 0.47	 736.7809	 
17.73	 0.47	 736.9530	 
17.73	 0.47	 737.0929	 
17.73	 0.47	 737.2650	 
17.73	 0.47	 737.4369	 
17.73	 0.47	 737.5780	 
17.73	 0.47	 737.7179	 
17.73	 0.47	 737.8749	 
17.73	 0.47	 738.0150	 
17.73	 0.47	 738.1720	 
17.73	 0.46	 738.3119	 
17.73	 0.46	 738.4679	 
17.73	 0.47	 738.6090	 
17.73	 0.46	 738.7650	 
17.73	 0.47	 738.9059	 
17.73	 0.47	 739.0780	 
17.73	 0.47	 739.2179	 
17.73	 0.46	 739.3900	 
17.73	 0.46	 739.5309	 
17.73	 0.47	 739.7030	 
17.73	 0.47	 739.8429	 
17.73	 0.47	 740.0150	 
17.73	 0.47	 740.1559	 
17.73	 0.46	 740.3280	 
17.73	 0.47	 740.4679	 
17.73	 0.47	 740.6400	 
17.73	 0.47	 740.7809	 
17.73	 0.47	 740.9369	 
17.73	 0.47	 741.0780	 
17.73	 0.47	 741.2340	 
17.73	 0.47	 741.3749	 
17.73	 0.47	 741.5470	 
17.73	 0.47	 741.6869	 
17.73	 0.47	 741.8429	 
17.73	 0.47	 741.9840	 
17.73	 0.47	 742.1400	 
17.73	 0.47	 742.2809	 
17.73	 0.47	 742.4530	 
17.73	 0.47	 742.5929	 
17.73	 0.47	 742.7650	 
17.73	 0.47	 742.9059	 
17.73	 0.47	 743.0780	 
17.73	 0.47	 743.2179	 
17.73	 0.47	 743.3900	 
17.73	 0.46	 743.5309	 
17.73	 0.47	 743.7030	 
17.73	 0.46	 743.8749	 
17.73	 0.47	 744.0150	 
17.73	 0.47	 744.1559	 
17.73	 0.47	 744.3119	 
17.73	 0.47	 744.4530	 
17.73	 0.47	 744.5929	 
17.73	 0.46	 744.7340	 
17.73	 0.47	 744.8900	 
17.73	 0.46	 745.0309	 
17.73	 0.46	 745.1869	 
17.73	 0.46	 745.3280	 
17.73	 0.47	 745.4999	 
17.73	 0.46	 745.6400	 
17.73	 0.46	 745.7970	 
17.73	 0.47	 745.9369	 
17.73	 0.47	 746.0929	 
17.73	 0.47	 746.2340	 
17.73	 0.46	 746.3900	 
17.73	 0.47	 746.5309	 
17.73	 0.47	 746.7030	 
17.73	 0.47	 746.8429	 
17.73	 0.47	 747.0150	 
17.73	 0.47	 747.1559	 
17.73	 0.47	 747.3280	 
17.73	 0.47	 747.4679	 
17.73	 0.47	 747.6400	 
17.73	 0.47	 747.7809	 
17.73	 0.46	 747.9369	 
17.73	 0.46	 748.0780	 
17.73	 0.47	 748.2340	 
17.73	 0.47	 748.3749	 
17.73	 0.46	 748.5470	 
17.73	 0.47	 748.6869	 
17.73	 0.46	 748.8429	 
17.73	 0.47	 748.9840	 
17.73	 0.46	 749.1400	 
17.73	 0.47	 749.2809	 
17.73	 0.47	 749.4530	 
17.73	 0.47	 749.5929	 
17.73	 0.47	 749.7650	 
17.73	 0.47	 749.9059	 
17.73	 0.47	 750.0780	 
17.73	 0.47	 750.3900	 
17.73	 0.47	 750.5309	 
17.73	 0.47	 750.7030	 
17.73	 0.47	 750.8429	 
17.73	 0.47	 750.9999	 
17.73	 0.47	 751.1400	 
17.73	 0.47	 751.2970	 
17.73	 0.46	 751.4369	 
17.73	 0.47	 751.5929	 
17.73	 0.47	 751.7340	 
17.73	 0.47	 751.8900	 
17.73	 0.46	 752.0309	 
17.73	 0.47	 752.2030	 
17.73	 0.47	 752.3429	 
17.72	 0.46	 752.5150	 
17.72	 0.47	 752.6559	 
17.72	 0.46	 752.8280	 
17.72	 0.46	 752.9679	 
17.72	 0.47	 753.1400	 
17.72	 0.47	 753.2809	 
17.72	 0.46	 753.4530	 
17.72	 0.47	 753.5929	 
17.72	 0.46	 753.7650	 
17.72	 0.47	 753.9059	 
17.72	 0.47	 754.0619	 
17.72	 0.47	 754.2030	 
17.72	 0.46	 754.3590	 
17.72	 0.47	 754.4999	 
17.72	 0.46	 754.6720	 
17.72	 0.46	 754.8119	 
17.72	 0.46	 754.9679	 
17.72	 0.46	 755.1090	 
17.72	 0.46	 755.2650	 
17.72	 0.47	 755.4059	 
17.72	 0.47	 755.5780	 
17.72	 0.47	 755.7179	 
17.72	 0.47	 755.8900	 
17.72	 0.46	 756.0309	 
17.72	 0.47	 756.2030	 
17.72	 0.47	 756.3429	 
17.72	 0.46	 756.5150	 
17.72	 0.47	 756.6559	 
17.72	 0.47	 756.8119	 
17.72	 0.46	 756.9530	 
17.72	 0.47	 757.1249	 
17.72	 0.47	 757.2650	 
17.72	 0.46	 757.4220	 
17.72	 0.47	 757.5619	 
17.72	 0.47	 757.7179	 
17.72	 0.47	 757.8590	 
17.72	 0.47	 758.0150	 
17.72	 0.46	 758.1559	 
17.72	 0.47	 758.3119	 
17.72	 0.47	 758.4530	 
17.72	 0.46	 758.6249	 
17.72	 0.47	 758.7650	 
17.72	 0.46	 758.9220	 
17.72	 0.46	 759.0619	 
17.72	 0.47	 759.2179	 
17.72	 0.47	 759.3590	 
17.72	 0.47	 759.5150	 
17.72	 0.47	 759.6559	 
17.72	 0.46	 759.8280	 
17.72	 0.46	 759.9679	 
17.72	 0.47	 760.1400	 
17.72	 0.47	 760.2809	 
17.72	 0.46	 760.4530	 
17.72	 0.46	 760.5929	 
17.72	 0.47	 760.7650	 
17.72	 0.46	 760.9220	 
17.72	 0.46	 761.0780	 
17.72	 0.47	 761.2179	 
17.72	 0.47	 761.3749	 
17.72	 0.46	 761.5150	 
17.72	 0.46	 761.6720	 
17.72	 0.47	 761.8119	 
17.72	 0.47	 761.9679	 
17.72	 0.47	 762.1090	 
17.72	 0.46	 762.2650	 
17.72	 0.46	 762.4059	 
17.72	 0.47	 762.5619	 
17.72	 0.47	 762.7030	 
17.72	 0.47	 762.8749	 
17.72	 0.47	 763.0150	 
17.72	 0.47	 763.1720	 
17.72	 0.47	 763.3119	 
17.72	 0.47	 763.4679	 
17.72	 0.47	 763.6090	 
17.72	 0.47	 763.7809	 
17.72	 0.47	 763.9220	 
17.72	 0.47	 764.0929	 
17.72	 0.46	 764.2340	 
17.72	 0.46	 764.4059	 
17.72	 0.47	 764.5470	 
17.72	 0.47	 764.7179	 
17.72	 0.47	 764.8590	 
17.72	 0.47	 765.0150	 
17.72	 0.47	 765.1559	 
17.72	 0.46	 765.3119	 
17.72	 0.46	 765.4530	 
17.72	 0.47	 765.6090	 
17.72	 0.47	 765.7499	 
17.72	 0.47	 765.9220	 
17.72	 0.47	 766.0619	 
17.72	 0.47	 766.2179	 
17.72	 0.47	 766.3590	 
17.72	 0.46	 766.5150	 
17.72	 0.47	 766.6559	 
17.72	 0.46	 766.8119	 
17.72	 0.47	 766.9530	 
17.72	 0.47	 767.1090	 
17.72	 0.47	 767.2499	 
17.72	 0.47	 767.4059	 
17.72	 0.47	 767.5470	 
17.72	 0.47	 767.7179	 
17.72	 0.46	 767.8590	 
17.72	 0.47	 768.0150	 
17.72	 0.47	 768.1559	 
17.72	 0.47	 768.3119	 
17.72	 0.47	 768.4530	 
17.72	 0.46	 768.6090	 
17.72	 0.47	 768.7499	 
17.72	 0.47	 768.9059	 
17.72	 0.47	 769.0470	 
17.72	 0.47	 769.2179	 
17.72	 0.47	 769.3590	 
17.72	 0.47	 769.5150	 
17.72	 0.47	 769.6559	 
17.72	 0.47	 769.8119	 
17.72	 0.47	 769.9530	 
17.72	 0.46	 770.1090	 
17.72	 0.46	 770.2499	 
17.72	 0.47	 770.4220	 
17.72	 0.47	 770.5619	 
17.72	 0.47	 770.7179	 
17.72	 0.47	 770.8590	 
17.72	 0.47	 771.0150	 
17.72	 0.47	 771.1559	 
17.72	 0.47	 771.3280	 
17.72	 0.46	 771.4679	 
17.72	 0.46	 771.6400	 
17.72	 0.46	 771.7809	 
17.72	 0.47	 771.9530	 
17.72	 0.47	 772.0929	 
17.72	 0.47	 772.2650	 
17.72	 0.46	 772.4059	 
17.72	 0.46	 772.5780	 
17.72	 0.47	 772.7179	 
17.72	 0.47	 772.8749	 
17.72	 0.46	 773.0150	 
17.72	 0.46	 773.1720	 
17.72	 0.47	 773.3119	 
17.72	 0.46	 773.4679	 
17.72	 0.46	 773.6090	 
17.71	 0.47	 773.7650	 
17.72	 0.46	 773.9059	 
17.72	 0.47	 774.0780	 
17.72	 0.47	 774.2179	 
17.71	 0.47	 774.3900	 
17.72	 0.47	 774.5309	 
17.71	 0.47	 774.7030	 
17.71	 0.47	 774.8429	 
17.72	 0.47	 775.0150	 
17.71	 0.46	 775.1559	 
17.71	 0.47	 775.3280	 
17.72	 0.46	 775.4679	 
17.71	 0.47	 775.6400	 
17.71	 0.47	 775.7970	 
17.71	 0.46	 775.9530	 
17.71	 0.47	 776.0929	 
17.71	 0.47	 776.2499	 
17.71	 0.47	 776.3900	 
17.71	 0.47	 776.5470	 
17.71	 0.47	 776.6869	 
17.71	 0.47	 776.8429	 
17.72	 0.47	 776.9840	 
17.72	 0.47	 777.1400	 
17.72	 0.47	 777.2809	 
17.72	 0.47	 777.4530	 
17.72	 0.47	 777.5929	 
17.72	 0.47	 777.7650	 
17.72	 0.46	 777.9059	 
17.72	 0.47	 778.0619	 
17.72	 0.47	 778.2030	 
17.72	 0.46	 778.3749	 
17.72	 0.46	 778.5150	 
17.72	 0.46	 778.6720	 
17.72	 0.47	 778.8119	 
17.72	 0.47	 778.9679	 
17.72	 0.46	 779.1090	 
17.72	 0.47	 779.2650	 
17.72	 0.46	 779.4059	 
17.72	 0.47	 779.5619	 
17.72	 0.46	 779.7030	 
17.72	 0.47	 779.8749	 
17.72	 0.46	 780.0150	 
17.72	 0.47	 780.1720	 
17.72	 0.46	 780.3119	 
17.72	 0.46	 780.4840	 
17.72	 0.47	 780.6249	 
17.72	 0.47	 780.7809	 
17.72	 0.46	 780.9220	 
17.72	 0.46	 781.0780	 
17.72	 0.46	 781.2179	 
17.72	 0.47	 781.3900	 
17.72	 0.47	 781.5309	 
17.72	 0.47	 781.7030	 
17.72	 0.47	 781.8429	 
17.72	 0.47	 782.0150	 
17.72	 0.47	 782.1559	 
17.72	 0.47	 782.3119	 
17.72	 0.47	 782.4530	 
17.72	 0.47	 782.6090	 
17.72	 0.46	 782.7499	 
17.72	 0.46	 782.9220	 
17.72	 0.47	 783.0619	 
17.72	 0.47	 783.2179	 
17.72	 0.47	 783.3590	 
17.72	 0.47	 783.5150	 
17.72	 0.47	 783.6559	 
17.72	 0.47	 783.8119	 
17.72	 0.47	 783.9530	 
17.72	 0.47	 784.1249	 
17.72	 0.47	 784.2650	 
17.72	 0.46	 784.4220	 
17.72	 0.46	 784.5619	 
17.72	 0.47	 784.7179	 
17.72	 0.47	 784.8590	 
17.72	 0.47	 785.0150	 
17.72	 0.47	 785.1559	 
17.72	 0.46	 785.3280	 
17.72	 0.47	 785.4679	 
17.72	 0.46	 785.6400	 
17.72	 0.46	 785.7809	 
17.72	 0.47	 785.9530	 
17.72	 0.47	 786.0929	 
17.72	 0.47	 786.2650	 
17.72	 0.46	 786.4059	 
17.72	 0.47	 786.5619	 
17.72	 0.46	 786.7030	 
17.72	 0.47	 786.8590	 
17.72	 0.46	 786.9999	 
17.72	 0.47	 787.1720	 
17.72	 0.47	 787.3119	 
17.72	 0.47	 787.4679	 
17.72	 0.47	 787.6090	 
17.72	 0.47	 787.7650	 
17.72	 0.46	 787.9059	 
17.72	 0.47	 788.0780	 
17.71	 0.47	 788.2179	 
17.71	 0.46	 788.3900	 
17.71	 0.47	 788.5309	 
17.71	 0.47	 788.7030	 
17.72	 0.47	 788.8429	 
17.71	 0.47	 789.0150	 
17.71	 0.46	 789.1559	 
17.71	 0.47	 789.3280	 
17.71	 0.46	 789.4679	 
17.72	 0.47	 789.6400	 
17.72	 0.47	 789.7809	 
17.71	 0.46	 789.9369	 
17.71	 0.46	 790.0780	 
17.71	 0.46	 790.2340	 
17.71	 0.47	 790.3749	 
17.71	 0.47	 790.5309	 
17.72	 0.46	 790.6720	 
17.72	 0.47	 790.8280	 
17.72	 0.46	 790.9679	 
17.72	 0.46	 791.1249	 
17.72	 0.47	 791.2650	 
17.72	 0.46	 791.4220	 
17.72	 0.47	 791.5619	 
17.72	 0.46	 791.7179	 
17.72	 0.47	 791.8590	 
17.72	 0.47	 792.0150	 
17.71	 0.47	 792.1559	 
17.72	 0.47	 792.3280	 
17.72	 0.47	 792.4679	 
17.71	 0.46	 792.6400	 
17.72	 0.46	 792.7809	 
17.71	 0.47	 792.9530	 
17.72	 0.46	 793.0929	 
17.72	 0.46	 793.2650	 
17.71	 0.47	 793.4059	 
17.71	 0.47	 793.5780	 
17.72	 0.47	 793.7179	 
17.71	 0.47	 793.8749	 
17.71	 0.47	 794.0150	 
17.71	 0.46	 794.1720	 
17.72	 0.46	 794.3119	 
17.72	 0.47	 794.4840	 
17.72	 0.47	 794.6249	 
17.72	 0.46	 794.7970	 
17.72	 0.47	 794.9369	 
17.72	 0.46	 795.0929	 
17.72	 0.46	 795.2340	 
17.72	 0.47	 795.4059	 
17.72	 0.47	 795.5470	 
17.72	 0.47	 795.7179	 
17.72	 0.46	 795.8590	 
17.72	 0.47	 796.0309	 
17.72	 0.47	 796.1720	 
17.72	 0.47	 796.3429	 
17.72	 0.47	 796.4840	 
17.72	 0.47	 796.6400	 
17.72	 0.46	 796.7809	 
17.72	 0.47	 796.9369	 
17.72	 0.46	 797.0780	 
17.71	 0.47	 797.2340	 
17.72	 0.47	 797.3749	 
17.71	 0.47	 797.5309	 
17.71	 0.46	 797.6720	 
17.71	 0.47	 797.8429	 
17.71	 0.46	 797.9840	 
17.72	 0.47	 798.1400	 
17.72	 0.46	 798.2809	 
17.71	 0.47	 798.4369	 
17.72	 0.47	 798.5780	 
17.72	 0.47	 798.7340	 
17.71	 0.47	 798.8749	 
17.72	 0.47	 799.0470	 
17.72	 0.46	 799.1869	 
17.72	 0.46	 799.3429	 
17.72	 0.47	 799.4840	 
17.72	 0.47	 799.6400	 
17.72	 0.47	 799.7809	 
17.72	 0.47	 799.9530	 
17.72	 0.47	 800.0929	 
17.72	 0.47	 800.2650	 
17.72	 0.47	 800.4059	 
17.72	 0.46	 800.5780	 
17.72	 0.47	 800.7179	 
17.72	 0.47	 800.8749	 
17.71	 0.47	 801.0150	 
17.72	 0.47	 801.1720	 
17.72	 0.47	 801.3119	 
17.72	 0.46	 801.4679	 
17.72	 0.47	 801.6090	 
17.72	 0.47	 801.7650	 
17.72	 0.46	 801.9059	 
17.71	 0.47	 802.0619	 
17.72	 0.47	 802.2030	 
17.71	 0.47	 802.3749	 
17.72	 0.46	 802.5150	 
17.71	 0.46	 802.6720	 
17.72	 0.47	 802.8119	 
17.71	 0.47	 802.9679	 
17.72	 0.47	 803.1090	 
17.72	 0.47	 803.2650	 
17.72	 0.47	 803.4059	 
17.72	 0.47	 803.5780	 
17.72	 0.47	 803.7179	 
17.72	 0.47	 803.8900	 
17.72	 0.47	 804.0309	 
17.72	 0.47	 804.2030	 
17.72	 0.46	 804.3429	 
17.71	 0.47	 804.5150	 
17.72	 0.47	 804.6559	 
17.71	 0.47	 804.8119	 
17.71	 0.46	 804.9530	 
17.71	 0.46	 805.1090	 
17.71	 0.47	 805.2499	 
17.71	 0.46	 805.4220	 
17.71	 0.46	 805.5619	 
17.71	 0.47	 805.7179	 
17.71	 0.47	 805.8590	 
17.71	 0.46	 806.0150	 
17.71	 0.47	 806.1559	 
17.71	 0.47	 806.3280	 
17.71	 0.47	 806.4679	 
17.71	 0.46	 806.6400	 
17.71	 0.46	 806.7809	 
17.71	 0.47	 806.9530	 
17.71	 0.46	 807.0929	 
17.71	 0.47	 807.2650	 
17.71	 0.47	 807.4059	 
17.71	 0.46	 807.5780	 
17.71	 0.47	 807.7499	 
17.71	 0.47	 807.8900	 
17.71	 0.47	 808.0309	 
17.71	 0.46	 808.1869	 
17.71	 0.47	 808.3280	 
17.71	 0.47	 808.4679	 
17.71	 0.46	 808.6090	 
17.71	 0.47	 808.7650	 
17.71	 0.47	 808.9059	 
17.71	 0.47	 809.0780	 
17.71	 0.47	 809.2179	 
17.71	 0.46	 809.3900	 
17.71	 0.46	 809.5309	 
17.71	 0.47	 809.7030	 
17.71	 0.47	 809.8590	 
17.71	 0.47	 810.0150	 
17.71	 0.47	 810.1559	 
17.71	 0.46	 810.3280	 
17.71	 0.46	 810.4679	 
17.71	 0.47	 810.6400	 
17.71	 0.47	 810.7809	 
17.71	 0.46	 810.9530	 
17.71	 0.47	 811.0929	 
17.71	 0.47	 811.2650	 
17.71	 0.47	 811.4059	 
17.71	 0.47	 811.5780	 
17.71	 0.47	 811.7179	 
17.71	 0.47	 811.8900	 
17.71	 0.46	 812.0309	 
17.71	 0.46	 812.2030	 
17.71	 0.47	 812.3429	 
17.71	 0.47	 812.5150	 
17.71	 0.47	 812.6559	 
17.71	 0.47	 812.8280	 
17.71	 0.46	 812.9999	 
17.71	 0.47	 813.1400	 
17.71	 0.47	 813.2809	 
17.71	 0.47	 813.4220	 
17.70	 0.47	 813.5619	 
17.70	 0.47	 813.7179	 
17.70	 0.47	 813.8590	 
17.70	 0.46	 814.0150	 
17.70	 0.47	 814.1559	 
17.70	 0.47	 814.3280	 
17.70	 0.46	 814.4679	 
17.70	 0.46	 814.6400	 
17.70	 0.46	 814.7809	 
17.70	 0.47	 814.9530	 
17.70	 0.47	 815.1090	 
17.70	 0.47	 815.2650	 
17.70	 0.47	 815.4059	 
17.70	 0.46	 815.5780	 
17.70	 0.47	 815.7179	 
17.70	 0.46	 815.8900	 
17.70	 0.46	 816.0309	 
17.70	 0.47	 816.2179	 
17.70	 0.46	 816.3590	 
17.70	 0.46	 816.5150	 
17.70	 0.46	 816.6559	 
17.70	 0.47	 816.8280	 
17.70	 0.46	 816.9679	 
17.70	 0.47	 817.1400	 
17.70	 0.46	 817.2809	 
17.70	 0.47	 817.4530	 
17.70	 0.47	 817.5929	 
17.70	 0.47	 817.7650	 
17.70	 0.46	 817.9059	 
17.70	 0.46	 818.0780	 
17.70	 0.47	 818.2499	 
17.70	 0.46	 818.3900	 
17.70	 0.46	 818.5309	 
17.70	 0.47	 818.6869	 
17.70	 0.46	 818.8280	 
17.70	 0.47	 818.9679	 
17.70	 0.46	 819.1090	 
17.70	 0.46	 819.2650	 
17.70	 0.47	 819.4059	 
17.70	 0.46	 819.5619	 
17.70	 0.47	 819.7030	 
17.70	 0.47	 819.8749	 
17.70	 0.47	 820.0150	 
17.70	 0.47	 820.1720	 
17.70	 0.46	 820.3119	 
17.70	 0.47	 820.4679	 
17.70	 0.46	 820.6090	 
17.70	 0.46	 820.7650	 
17.70	 0.47	 820.9059	 
17.70	 0.46	 821.0780	 
17.70	 0.46	 821.2179	 
-12.89	 3.54	 821.3900	 
-12.88	 17.70	 821.7030	 
-12.88	 31.89	 822.0150	 
-12.88	 37.24	 822.1559	 
-12.88	 42.95	 822.4369	 
-12.88	 42.95	 822.5780	 
-12.88	 42.96	 822.7340	 
-12.88	 42.95	 822.8749	 
-12.88	 42.95	 823.0150	 
-12.88	 42.95	 823.1559	 
-12.88	 42.95	 823.3119	 
-12.88	 42.95	 823.4530	 
-12.88	 42.95	 823.6249	 
-12.88	 42.95	 823.7650	 
-12.88	 42.96	 823.9220	 
-12.88	 42.95	 824.0619	 
-12.88	 42.95	 824.2340	 
-12.88	 42.95	 824.3749	 
-12.88	 42.95	 824.5309	 
-12.88	 42.96	 824.6720	 
-12.88	 42.95	 824.8280	 
-12.88	 42.95	 824.9679	 
-12.88	 42.95	 825.1400	 
-12.88	 42.95	 825.2809	 
-12.88	 42.95	 825.4530	 
-12.88	 42.95	 825.5929	 
-12.88	 42.95	 825.7650	 
-12.88	 42.95	 825.9059	 
-12.88	 42.96	 826.0780	 
-12.88	 42.95	 826.2179	 
-12.88	 42.95	 826.3900	 
-12.88	 42.95	 826.5309	 
-12.88	 42.95	 826.6869	 
-12.88	 42.95	 826.8280	 
-12.88	 42.95	 826.9840	 
-12.88	 42.95	 827.1249	 
-12.88	 42.95	 827.2809	 
-12.88	 42.95	 827.4220	 
-12.88	 42.95	 827.5929	 
-12.88	 42.95	 827.7340	 
-12.88	 42.95	 827.8900	 
-12.88	 42.95	 828.0309	 
-12.88	 42.95	 828.1869	 
-12.88	 42.95	 828.3280	 
-12.88	 42.95	 828.4840	 
-12.88	 42.95	 828.6249	 
-12.88	 42.95	 828.7809	 
-12.88	 42.95	 828.9220	 
-12.88	 42.95	 829.0929	 
-12.88	 42.95	 829.2340	 
-12.88	 42.95	 829.3900	 
-12.88	 42.95	 829.5309	 
-12.88	 42.95	 829.7030	 
-12.88	 42.95	 829.8429	 
-12.88	 42.95	 830.0150	 
-12.88	 42.95	 830.1559	 
-12.88	 42.95	 830.3280	 
-12.88	 42.95	 830.4679	 
-12.88	 42.95	 830.6249	 
-12.88	 42.95	 830.7650	 
-12.88	 42.95	 830.9220	 
-12.88	 42.95	 831.0619	 
-12.88	 42.95	 831.2179	 
-12.88	 42.95	 831.3590	 
-12.88	 42.95	 831.5150	 
-12.88	 42.95	 831.6559	 
-12.88	 42.95	 831.8280	 
-12.88	 42.95	 831.9679	 
-12.88	 42.95	 832.1400	 
-12.88	 42.95	 832.2809	 
-12.88	 42.95	 832.4530	 
-12.88	 42.95	 832.5929	 
-12.88	 42.95	 832.7650	 
-12.88	 42.95	 832.9059	 
-12.88	 42.95	 833.0780	 
-12.88	 42.95	 833.2340	 
-12.88	 42.95	 833.3900	 
-12.88	 42.95	 833.5309	 
-12.88	 42.95	 833.6869	 
-12.88	 42.95	 833.8280	 
-12.88	 42.95	 833.9840	 
-12.88	 42.95	 834.1249	 
-12.88	 42.95	 834.2809	 
-12.88	 42.95	 834.4220	 
-12.88	 42.95	 834.5929	 
-12.88	 42.95	 834.7340	 
-12.88	 42.95	 834.8900	 
-12.88	 42.95	 835.0309	 
-12.88	 42.95	 835.1869	 
-12.88	 42.95	 835.3280	 
-12.88	 42.95	 835.4999	 
-12.88	 42.95	 835.6400	 
-12.88	 42.95	 835.7970	 
-12.88	 42.95	 835.9369	 
-12.88	 42.95	 836.0929	 
-12.88	 42.95	 836.2340	 
-12.88	 42.95	 836.3900	 
-12.88	 42.95	 836.5309	 
-12.88	 42.95	 836.7030	 
-12.88	 42.95	 836.8429	 
-12.88	 42.95	 837.0150	 
-12.88	 42.95	 837.1559	 
-12.88	 42.95	 837.3280	 
-12.88	 42.95	 837.4840	 
-12.88	 42.95	 837.6400	 
-12.88	 42.95	 837.7809	 
-12.88	 42.95	 837.9369	 
-12.88	 42.95	 838.0780	 
-12.88	 42.95	 838.2340	 
-12.88	 42.95	 838.3749	 
-12.88	 42.95	 838.5309	 
-12.88	 42.95	 838.6720	 
-12.88	 42.95	 838.8280	 
-12.88	 42.95	 838.9679	 
-12.88	 42.95	 839.1400	 
-12.88	 42.95	 839.2809	 
-12.88	 42.95	 839.4530	 
-12.88	 42.95	 839.5929	 
-12.88	 42.95	 839.7650	 
-12.88	 42.95	 839.9059	 
-12.88	 42.95	 840.0780	 
-12.88	 42.95	 840.2179	 
-12.88	 42.95	 840.3900	 
-12.88	 42.95	 840.5309	 
-12.88	 42.95	 840.6869	 
-12.88	 42.95	 840.8280	 
-12.88	 42.95	 840.9999	 
-12.88	 42.95	 841.1400	 
-12.88	 42.95	 841.2970	 
-12.88	 42.95	 841.4369	 
-12.88	 42.95	 841.5929	 
-12.88	 42.95	 841.7340	 
-12.88	 42.95	 841.8900	 
-12.88	 42.95	 842.0309	 
-12.88	 42.95	 842.1869	 
-12.88	 42.95	 842.3280	 
-12.88	 42.95	 842.4999	 
-12.88	 42.95	 842.6400	 
-12.87	 42.95	 842.7970	 
-12.88	 42.95	 842.9369	 
-12.88	 42.95	 843.0929	 
-12.88	 42.95	 843.2340	 
-12.88	 42.95	 843.3900	 
-12.88	 42.95	 843.5309	 
-12.88	 42.95	 843.7030	 
-12.88	 42.95	 843.8429	 
-12.88	 42.95	 844.0150	 
-12.88	 42.95	 844.1559	 
-12.88	 42.95	 844.3280	 
-12.88	 42.95	 844.4679	 
-12.88	 42.95	 844.6249	 
-12.88	 42.95	 844.7650	 
-12.88	 42.95	 844.9220	 
-12.88	 42.95	 845.0619	 
-12.88	 42.95	 845.2179	 
-12.88	 42.95	 845.3590	 
-12.88	 42.95	 845.5150	 
-12.87	 42.95	 845.6559	 
-12.88	 42.95	 845.8119	 
-12.88	 42.95	 845.9530	 
-12.88	 42.95	 846.1090	 
-12.87	 42.95	 846.2499	 
-12.88	 42.95	 846.4059	 
-12.88	 42.95	 846.5470	 
-12.88	 42.95	 846.7030	 
-12.87	 42.95	 846.8429	 
-12.88	 42.95	 846.9999	 
-12.87	 42.95	 847.1400	 
-12.88	 42.95	 847.2970	 
-12.88	 42.95	 847.4369	 
-12.88	 42.95	 847.5929	 
-12.88	 42.95	 847.7340	 
-12.87	 42.95	 847.9059	 
-12.88	 42.95	 848.0470	 
-12.88	 42.95	 848.2179	 
-12.87	 42.95	 848.3590	 
-12.88	 42.95	 848.5309	 
-12.88	 42.95	 848.6720	 
-12.87	 42.95	 848.8429	 
-12.88	 42.95	 848.9840	 
-12.88	 42.95	 849.1400	 
-12.88	 42.95	 849.2809	 
-12.88	 42.95	 849.4369	 
-12.88	 42.95	 849.5780	 
-12.87	 42.95	 849.7340	 
-12.88	 42.95	 849.8749	 
-12.88	 42.95	 850.0309	 
-12.87	 42.95	 850.1720	 
-12.88	 42.95	 850.3280	 
-12.87	 42.95	 850.4679	 
-12.87	 42.95	 850.6400	 
-12.87	 42.95	 850.7809	 
-12.87	 42.95	 850.9530	 
-12.88	 42.95	 851.0929	 
-12.88	 42.95	 851.2650	 
-12.88	 42.95	 851.4059	 
-12.87	 42.95	 851.5619	 
-12.87	 42.95	 851.7030	 
-12.87	 42.95	 851.8590	 
-12.88	 42.95	 851.9999	 
-12.88	 42.95	 852.1559	 
-12.87	 42.95	 852.2970	 
-12.87	 42.95	 852.4530	 
-12.87	 42.95	 852.5929	 
-12.88	 42.95	 852.7650	 
-12.87	 42.95	 852.9059	 
-12.88	 42.95	 853.0780	 
-12.88	 42.95	 853.2179	 
-12.88	 42.95	 853.3749	 
-12.87	 42.95	 853.5150	 
-12.88	 42.95	 853.6720	 
-12.88	 42.95	 853.8119	 
-12.87	 42.95	 853.9679	 
-12.87	 42.95	 854.1090	 
-12.88	 42.95	 854.2650	 
-12.87	 42.95	 854.4059	 
-12.87	 42.95	 854.5619	 
-12.87	 42.95	 854.7030	 
-12.88	 42.95	 854.8749	 
-12.87	 42.95	 855.0150	 
-12.87	 42.95	 855.1720	 
-12.88	 42.95	 855.3119	 
-12.87	 42.95	 855.4679	 
-12.87	 42.95	 855.6090	 
-12.87	 42.95	 855.7650	 
-12.87	 42.95	 855.9059	 
-12.87	 42.95	 856.0619	 
-12.87	 42.95	 856.2030	 
-12.87	 42.95	 856.3590	 
-12.88	 42.95	 856.4999	 
-12.87	 42.95	 856.6559	 
-12.87	 42.95	 856.7970	 
-12.87	 42.95	 856.9679	 
-12.87	 42.95	 857.1090	 
-12.87	 42.95	 857.2809	 
-12.87	 42.95	 857.4220	 
-12.88	 42.95	 857.5929	 
-12.87	 42.95	 857.7340	 
-12.87	 42.95	 857.8900	 
-12.88	 42.95	 858.0309	 
-12.87	 42.95	 858.1869	 
-12.87	 42.95	 858.3280	 
-12.87	 42.95	 858.4999	 
-12.87	 42.95	 858.6400	 
-12.87	 42.95	 858.7970	 
-12.87	 42.95	 858.9369	 
-12.87	 42.95	 859.0929	 
-12.87	 42.95	 859.2340	 
-12.87	 42.95	 859.3900	 
-12.87	 42.95	 859.5309	 
-12.87	 42.95	 859.6869	 
-12.87	 42.95	 859.8280	 
-12.87	 42.95	 859.9999	 
-12.87	 42.95	 860.1400	 
-12.87	 42.95	 860.2970	 
-12.87	 42.95	 860.4369	 
-12.87	 42.95	 860.5929	 
-12.87	 42.95	 860.7340	 
-12.87	 42.95	 860.8900	 
-12.88	 42.95	 861.0309	 
-12.87	 42.95	 861.2030	 
-12.87	 42.95	 861.3429	 
-12.87	 42.95	 861.5150	 
-12.87	 42.95	 861.6559	 
-12.87	 42.95	 861.8280	 
-12.87	 42.95	 861.9679	 
-12.88	 42.95	 862.1249	 
-12.87	 42.95	 862.2650	 
-12.87	 42.95	 862.4220	 
-12.87	 42.95	 862.5619	 
-12.87	 42.95	 862.7179	 
-12.87	 42.95	 862.8590	 
-12.87	 42.95	 863.0150	 
-12.87	 42.95	 863.1559	 
-12.87	 42.95	 863.3119	 
-12.87	 42.95	 863.4530	 
-12.87	 42.95	 863.6090	 
-12.87	 42.95	 863.7499	 
-12.87	 42.95	 863.9220	 
-12.87	 42.95	 864.0619	 
-12.87	 42.95	 864.2179	 
-12.87	 42.95	 864.3590	 
-12.88	 42.95	 864.5150	 
-12.87	 42.95	 864.6559	 
-12.87	 42.94	 864.8280	 
-12.87	 42.95	 864.9679	 
-12.87	 42.95	 865.1400	 
-12.87	 42.95	 865.2809	 
-12.87	 42.95	 865.4530	 
-12.87	 42.95	 865.5929	 
-12.87	 42.95	 865.7650	 
-12.87	 42.95	 865.9059	 
-12.87	 42.95	 866.0619	 
-12.88	 42.95	 866.2030	 
-12.87	 42.95	 866.3590	 
-12.88	 42.95	 866.4999	 
-12.87	 42.95	 866.6720	 
-12.87	 42.95	 866.8119	 
-12.87	 42.95	 866.9679	 
-12.87	 42.95	 867.1090	 
-12.87	 42.95	 867.2650	 
-12.87	 42.95	 867.4059	 
-12.87	 42.95	 867.5619	 
-12.87	 42.95	 867.7030	 
-12.87	 42.95	 867.8749	 
-12.87	 42.95	 868.0150	 
-12.87	 42.95	 868.1720	 
-12.87	 42.95	 868.3119	 
-12.87	 42.95	 868.4679	 
-12.87	 42.95	 868.6090	 
-12.87	 42.95	 868.7650	 
-12.87	 42.95	 868.9059	 
-12.87	 42.95	 869.0619	 
-12.87	 42.95	 869.2030	 
-12.87	 42.95	 869.3749	 
-12.87	 42.95	 869.5150	 
-12.87	 42.95	 869.6720	 
-12.87	 42.95	 869.8119	 
-12.87	 42.95	 869.9679	 
-12.87	 42.95	 870.1090	 
-12.87	 42.95	 870.2650	 
-12.87	 42.94	 870.4059	 
-12.87	 42.95	 870.5780	 
-12.87	 42.95	 870.7179	 
-12.87	 42.95	 870.8749	 
-12.87	 42.95	 871.0150	 
-12.87	 42.95	 871.1720	 
-12.87	 42.95	 871.3119	 
-12.87	 42.95	 871.4679	 
-12.88	 42.95	 871.6090	 
-12.87	 42.95	 871.7650	 
-12.87	 42.95	 871.9059	 
-12.87	 42.95	 872.0619	 
-12.87	 42.94	 872.2030	 
-12.87	 42.95	 872.3749	 
-12.87	 42.95	 872.5150	 
-12.87	 42.95	 872.6720	 
-12.87	 42.95	 872.8119	 
-12.87	 42.94	 872.9679	 
-12.87	 42.95	 873.1090	 
-12.87	 42.95	 873.2650	 
-12.87	 42.95	 873.4059	 
-12.87	 42.95	 873.5780	 
-12.87	 42.95	 873.7179	 
-12.87	 42.95	 873.8900	 
-12.87	 42.95	 874.0309	 
-12.87	 42.94	 874.2030	 
-12.87	 42.95	 874.3429	 
-12.87	 42.95	 874.5150	 
-12.87	 42.94	 874.6559	 
-12.87	 42.94	 874.8119	 
-12.87	 42.94	 874.9530	 
-12.87	 42.95	 875.1090	 
-12.87	 42.94	 875.2499	 
-12.87	 42.94	 875.4220	 
-12.87	 42.95	 875.5619	 
-12.87	 42.94	 875.7179	 
-12.87	 42.95	 875.8590	 
-12.87	 42.94	 876.0150	 
-12.87	 42.95	 876.1559	 
-12.87	 42.94	 876.3280	 
-12.87	 42.94	 876.4679	 
-12.87	 42.95	 876.6400	 
-12.87	 42.95	 876.7809	 
-12.87	 42.95	 876.9530	 
-12.87	 42.95	 877.0929	 
-12.87	 42.94	 877.2650	 
-12.87	 42.95	 877.4059	 
-12.87	 42.95	 877.5780	 
-12.87	 42.94	 877.7499	 
-12.87	 42.94	 877.8900	 
-12.87	 42.95	 878.0309	 
-12.87	 42.94	 878.1869	 
-12.87	 42.94	 878.3280	 
-12.87	 42.95	 878.4679	 
-12.87	 42.95	 878.6090	 
-12.87	 42.94	 878.7650	 
-12.87	 42.94	 878.9059	 
-12.87	 42.95	 879.0780	 
-12.87	 42.95	 879.2179	 
-12.87	 42.94	 879.3900	 
-12.87	 42.95	 879.5309	 
-12.87	 42.94	 879.7030	 
-12.87	 42.94	 879.8749	 
-12.87	 42.95	 880.0150	 
-12.87	 42.95	 880.1559	 
-12.87	 42.94	 880.3280	 
-12.87	 42.94	 880.4679	 
-12.87	 42.95	 880.6400	 
-12.87	 42.94	 880.7809	 
-12.87	 42.95	 880.9530	 
-12.87	 42.95	 881.0929	 
-12.87	 42.94	 881.2650	 
-12.87	 42.94	 881.4059	 
-12.87	 42.95	 881.5780	 
-12.87	 42.95	 881.7179	 
-12.87	 42.94	 881.8900	 
-12.87	 42.94	 882.0309	 
-12.87	 42.94	 882.2030	 
-12.87	 42.94	 882.3429	 
-12.87	 42.95	 882.5150	 
-12.87	 42.95	 882.6559	 
-12.87	 42.94	 882.8280	 
-12.87	 42.94	 882.9999	 
-12.87	 42.94	 883.1400	 
-12.87	 42.94	 883.2809	 
-12.87	 42.94	 883.4220	 
-12.87	 42.94	 883.5619	 
-12.87	 42.94	 883.7179	 
-12.87	 42.94	 883.8590	 
-12.87	 42.95	 884.0150	 
-12.87	 42.94	 884.1559	 
-12.87	 42.94	 884.3280	 
-12.87	 42.94	 884.4679	 
-12.87	 42.94	 884.6400	 
-12.87	 42.94	 884.7809	 
-12.87	 42.94	 884.9530	 
-12.87	 42.94	 885.1249	 
-12.87	 42.94	 885.2650	 
-12.87	 42.94	 885.4059	 
-12.87	 42.94	 885.5780	 
-12.87	 42.94	 885.7179	 
-12.87	 42.94	 885.8900	 
-12.87	 42.94	 886.0309	 
-12.87	 42.94	 886.2179	 
-12.87	 42.94	 886.3590	 
-12.87	 42.94	 886.5150	 
-12.87	 42.94	 886.6559	 
-12.87	 42.94	 886.8280	 
-12.87	 42.94	 886.9679	 
-12.87	 42.94	 887.1400	 
-12.87	 42.94	 887.2809	 
-12.87	 42.95	 887.4530	 
-12.87	 42.94	 887.5929	 
-12.87	 42.94	 887.7650	 
-12.87	 42.94	 887.9059	 
-12.87	 42.94	 888.0780	 
-12.87	 42.94	 888.2340	 
-12.87	 42.94	 888.3900	 
-12.87	 42.94	 888.5309	 
-12.87	 42.94	 888.6869	 
-12.87	 42.94	 888.8280	 
-12.87	 42.94	 888.9679	 
-12.87	 42.94	 889.1090	 
-12.87	 42.94	 889.2650	 
-12.87	 42.94	 889.4059	 
-12.87	 42.94	 889.5619	 
-12.87	 42.94	 889.7030	 
-12.87	 42.94	 889.8749	 
-12.87	 42.94	 890.0150	 
-12.87	 42.94	 890.1720	 
-12.87	 42.94	 890.3119	 
-12.88	 42.94	 890.4679	 
-12.87	 42.94	 890.6090	 
-12.87	 42.94	 890.7650	 
-12.87	 42.94	 890.9059	 
-12.87	 42.94	 891.0780	 
-12.87	 42.94	 891.2179	 
-12.87	 42.94	 891.3900	 
-12.87	 42.94	 891.5309	 
-12.87	 42.94	 891.7030	 
-12.87	 42.94	 891.8429	 
-12.87	 42.94	 892.0150	 
-12.87	 42.94	 892.1559	 
-12.87	 42.94	 892.3119	 
-12.87	 42.94	 892.4530	 
-12.87	 42.94	 892.6090	 
-12.87	 42.94	 892.7499	 
-12.87	 42.94	 892.9220	 
-12.87	 42.94	 893.0619	 
-12.87	 42.94	 893.2179	 
-12.87	 42.94	 893.3590	 
-12.87	 42.94	 893.5150	 
-12.87	 42.94	 893.6559	 
-12.87	 42.94	 893.8280	 
-12.87	 42.94	 893.9679	 
-12.87	 42.94	 894.1400	 
-12.87	 42.94	 894.2809	 
-12.87	 42.94	 894.4530	 
-12.87	 42.94	 894.6249	 
-12.87	 42.94	 894.7650	 
-12.87	 42.94	 894.9059	 
-12.87	 42.94	 895.0780	 
-12.87	 42.94	 895.2179	 
-12.87	 42.94	 895.3749	 
-12.87	 42.94	 895.5150	 
-12.87	 42.94	 895.6720	 
-12.87	 42.94	 895.8119	 
-12.87	 42.94	 895.9679	 
-12.87	 42.94	 896.1090	 
-12.87	 42.94	 896.2650	 
-12.87	 42.94	 896.4059	 
-12.87	 42.94	 896.5619	 
-12.87	 42.94	 896.7030	 
-12.87	 42.94	 896.8590	 
-12.87	 42.94	 896.9999	 
-12.87	 42.94	 897.1720	 
-12.87	 42.94	 897.3119	 
-12.87	 42.94	 897.4679	 
-12.87	 42.94	 897.6090	 
-12.87	 42.94	 897.7650	 
-12.87	 42.94	 897.9059	 
-12.87	 42.94	 898.0780	 
-12.87	 42.94	 898.2179	 
-12.87	 42.94	 898.3900	 
-12.87	 42.94	 898.5309	 
-12.87	 42.94	 898.6869	 
-12.87	 42.94	 898.8280	 
-12.87	 42.94	 898.9840	 
-12.87	 42.94	 899.1249	 
-12.87	 42.94	 899.2809	 
-12.87	 42.94	 899.4220	 
-12.87	 42.94	 899.5929	 
-12.87	 42.94	 899.7340	 
-12.87	 42.94	 899.8900	 
-12.87	 42.94	 900.0309	 
-12.87	 42.94	 900.1869	 
-12.87	 42.94	 900.3280	 
-12.87	 42.94	 900.4840	 
-12.87	 42.94	 900.6249	 
-12.87	 42.94	 900.7970	 
-12.87	 42.94	 900.9369	 
-12.87	 42.94	 901.0929	 
-12.87	 42.94	 901.2340	 
-12.87	 42.94	 901.3900	 
-12.87	 42.94	 901.5309	 
-12.87	 42.94	 901.7030	 
-12.87	 42.94	 901.8429	 
-12.87	 42.94	 902.0150	 
-12.87	 42.94	 902.1559	 
-12.87	 42.94	 902.3280	 
-12.87	 42.94	 902.4679	 
-12.87	 42.94	 902.6400	 
-12.87	 42.94	 902.7809	 
-12.87	 42.94	 902.9530	 
-12.87	 42.94	 903.1249	 
-12.87	 42.94	 903.2650	 
-12.87	 42.94	 903.4059	 
-12.87	 42.94	 903.5470	 
-12.87	 42.94	 903.6869	 
-12.87	 42.94	 903.8590	 
-12.87	 42.94	 903.9999	 
-12.87	 42.94	 904.1559	 
-12.87	 42.94	 904.2970	 
-12.87	 42.94	 904.4530	 
-12.87	 42.94	 904.5929	 
-12.87	 42.94	 904.7650	 
-12.87	 42.94	 904.9059	 
-12.87	 42.94	 905.0780	 
-12.87	 42.94	 905.2179	 
-12.87	 42.94	 905.3749	 
-12.87	 42.94	 905.5150	 
-12.87	 42.94	 905.6720	 
-12.87	 42.94	 905.8119	 
-12.87	 42.94	 905.9679	 
-12.87	 42.94	 906.1090	 
-12.87	 42.94	 906.2650	 
-12.87	 42.94	 906.4059	 
-12.87	 42.94	 906.5619	 
-12.87	 42.94	 906.7030	 
-12.87	 42.94	 906.8590	 
-12.87	 42.94	 906.9999	 
-12.87	 42.94	 907.1720	 
-12.87	 42.94	 907.3119	 
-12.87	 42.94	 907.4679	 
-12.87	 42.94	 907.6090	 
-12.87	 42.94	 907.7650	 
-12.87	 42.94	 907.9059	 
-12.87	 42.94	 908.0619	 
-12.87	 42.94	 908.2030	 
-12.87	 42.94	 908.3590	 
-12.87	 42.94	 908.4999	 
-12.87	 42.94	 908.6720	 
-12.87	 42.94	 908.8119	 
-12.87	 42.94	 908.9679	 
-12.87	 42.94	 909.1090	 
-12.87	 42.94	 909.2650	 
-12.87	 42.94	 909.4059	 
-12.87	 42.94	 909.5619	 
-12.87	 42.94	 909.7030	 
-12.87	 42.94	 909.8749	 
-12.87	 42.94	 910.0150	 
-12.87	 42.94	 910.1720	 
-12.87	 42.94	 910.3119	 
-12.87	 42.94	 910.4679	 
-12.87	 42.94	 910.6090	 
-12.87	 42.94	 910.7650	 
-12.87	 42.94	 910.9059	 
-12.87	 42.94	 911.0780	 
-12.87	 42.94	 911.2179	 
-12.87	 42.94	 911.3900	 
-12.87	 42.94	 911.5309	 
-12.87	 42.94	 911.7030	 
-12.87	 42.94	 911.8429	 
-12.87	 42.94	 911.9999	 
-12.87	 42.94	 912.1400	 
-12.87	 42.94	 912.2970	 
-12.87	 42.94	 912.4369	 
-12.87	 42.94	 912.6090	 
-12.87	 42.94	 912.7499	 
-12.87	 42.94	 912.9059	 
-12.87	 42.94	 913.0470	 
-12.87	 42.94	 913.2030	 
-12.87	 42.94	 913.3429	 
-12.87	 42.94	 913.5150	 
-12.87	 42.94	 913.6559	 
-12.87	 42.94	 913.8119	 
-12.87	 42.94	 913.9530	 
-12.87	 42.94	 914.1249	 
-12.87	 42.94	 914.2650	 
-12.87	 42.94	 914.4220	 
-12.87	 42.94	 914.5619	 
-12.87	 42.94	 914.7179	 
-12.87	 42.94	 914.8590	 
-12.87	 42.94	 915.0150	 
-12.87	 42.94	 915.1559	 
-12.87	 42.94	 915.3280	 
-12.87	 42.94	 915.4679	 
-12.87	 42.94	 915.6400	 
-12.87	 42.94	 915.7809	 
-12.87	 42.94	 915.9369	 
-12.87	 42.94	 916.0780	 
-12.87	 42.94	 916.2340	 
-12.87	 42.94	 916.3749	 
-12.87	 42.94	 916.5470	 
-12.87	 42.94	 916.6869	 
-12.87	 42.94	 916.8429	 
-12.87	 42.94	 916.9840	 
-12.87	 42.94	 917.1400	 
-12.87	 42.94	 917.2809	 
-12.87	 42.94	 917.4530	 
-12.87	 42.94	 917.5929	 
-12.87	 42.94	 917.7650	 
-12.87	 42.94	 917.9059	 
-12.87	 42.94	 918.0619	 
-12.87	 42.94	 918.2030	 
-12.87	 42.94	 918.3749	 
-12.87	 42.94	 918.5150	 
-12.87	 42.94	 918.6720	 
-12.87	 42.94	 918.8119	 
-12.87	 42.94	 918.9679	 
-12.87	 42.94	 919.1090	 
-12.87	 42.94	 919.2650	 
-12.87	 42.94	 919.4059	 
-12.87	 42.94	 919.5619	 
-12.87	 42.94	 919.7030	 
-12.87	 42.94	 919.8590	 
-12.87	 42.94	 919.9999	 
-12.87	 42.94	 920.1720	 
-12.87	 42.94	 920.3119	 
-12.87	 42.94	 920.4840	 
-12.87	 42.94	 920.6249	 
-12.87	 42.94	 920.7809	 
-12.87	 42.94	 920.9220	 
-12.87	 42.94	 921.0780	 
-12.87	 42.94	 921.2179	 
-12.87	 42.94	 921.3900	 
-12.87	 42.94	 921.5309	 
-12.87	 42.94	 921.7030	 
-12.87	 42.94	 921.8429	 
-12.87	 42.94	 922.0150	 
-12.87	 42.94	 922.1559	 
-12.87	 42.94	 922.3119	 
-12.87	 42.94	 922.4530	 
-12.87	 42.94	 922.6090	 
-12.87	 42.94	 922.7499	 
-12.87	 42.94	 922.9220	 
-12.87	 42.94	 923.0619	 
-12.87	 42.94	 923.2179	 
-12.87	 42.94	 923.3590	 
-12.87	 42.94	 923.5150	 
-12.87	 42.94	 923.6559	 
-12.87	 42.94	 923.8119	 
-12.87	 42.94	 923.9530	 
-12.87	 42.94	 924.1090	 
-12.87	 42.94	 924.2499	 
-12.87	 42.94	 924.4059	 
-12.87	 42.94	 924.5470	 
-12.87	 42.94	 924.7179	 
-12.87	 42.94	 924.8590	 
-12.87	 42.94	 925.0150	 
-12.87	 42.94	 925.1559	 
-12.87	 42.94	 925.3280	 
-12.87	 42.94	 925.4679	 
-12.87	 42.94	 925.6400	 
-12.87	 42.94	 925.7809	 
-12.87	 42.94	 925.9530	 
-12.87	 42.94	 926.0929	 
-12.87	 42.94	 926.2650	 
-12.87	 42.94	 926.4059	 
-12.87	 42.94	 926.5619	 
-12.87	 42.94	 926.7030	 
-12.87	 42.94	 926.8590	 
-12.87	 42.94	 926.9999	 
-12.87	 42.94	 927.1720	 
-12.87	 42.94	 927.3119	 
-12.87	 42.94	 927.4679	 
-12.87	 42.94	 927.6090	 
-12.87	 42.94	 927.7650	 
-12.87	 42.94	 927.9059	 
-12.87	 42.94	 928.0780	 
-12.87	 42.94	 928.2179	 
-12.87	 42.94	 928.3900	 
-12.87	 42.94	 928.5309	 
-12.87	 42.94	 928.7030	 
-12.87	 42.94	 928.8429	 
-12.87	 42.94	 929.0150	 
-12.87	 42.94	 929.1559	 
-12.87	 42.94	 929.3280	 
-12.87	 42.94	 929.4679	 
-12.87	 42.94	 929.6400	 
-12.87	 42.94	 929.7809	 
-12.87	 42.94	 929.9369	 
-12.87	 42.94	 930.0780	 
-12.87	 42.94	 930.2499	 
-12.87	 42.94	 930.3900	 
-12.87	 42.94	 930.5470	 
-12.87	 42.94	 930.6869	 
-12.87	 42.94	 930.8429	 
-12.87	 42.94	 930.9840	 
-12.87	 42.94	 931.1400	 
-12.87	 42.94	 931.2809	 
-12.87	 42.94	 931.4369	 
-12.87	 42.94	 931.5780	 
-12.87	 42.94	 931.7499	 
-12.87	 42.94	 931.8900	 
-12.87	 42.94	 932.0470	 
-12.87	 42.94	 932.1869	 
-12.87	 42.94	 932.3429	 
-12.87	 42.94	 932.4840	 
-12.87	 42.94	 932.6400	 
-12.87	 42.94	 932.7809	 
-12.87	 42.94	 932.9530	 
-12.87	 42.94	 933.0929	 
-12.87	 42.94	 933.2650	 
-12.87	 42.94	 933.4059	 
-12.87	 42.94	 933.5780	 
-12.87	 42.94	 933.7179	 
-12.87	 42.94	 933.8749	 
-12.87	 42.94	 934.0150	 
-12.87	 42.94	 934.1720	 
-12.87	 42.94	 934.3119	 
-12.87	 42.94	 934.4840	 
-12.87	 42.94	 934.6249	 
-12.87	 42.94	 934.7809	 
-12.87	 42.94	 934.9220	 
-12.87	 42.94	 935.0780	 
-12.87	 42.94	 935.2179	 
-12.87	 42.94	 935.3900	 
-12.87	 42.94	 935.5309	 
-12.87	 42.94	 935.6869	 
-12.87	 42.94	 935.8280	 
-12.87	 42.94	 935.9999	 
-12.87	 42.94	 936.1400	 
-12.87	 42.94	 936.2970	 
-12.87	 42.94	 936.4369	 
-12.87	 42.94	 936.5929	 
-12.87	 42.94	 936.7340	 
-12.87	 42.94	 936.8900	 
-12.87	 42.94	 937.0309	 
-12.87	 42.94	 937.1869	 
-12.87	 42.94	 937.3280	 
-12.87	 42.94	 937.4840	 
-12.87	 42.94	 937.6249	 
-12.87	 42.94	 937.7970	 
-12.87	 42.94	 937.9369	 
-12.87	 42.94	 938.0929	 
-12.87	 42.94	 938.2340	 
-12.87	 42.94	 938.3900	 
-12.87	 42.94	 938.5309	 
-12.87	 42.94	 938.6869	 
-12.87	 42.94	 938.8280	 
-12.87	 42.94	 938.9840	 
-12.87	 42.94	 939.1249	 
-12.87	 42.94	 939.2970	 
-12.87	 42.94	 939.4369	 
-12.87	 42.94	 939.5929	 
-12.87	 42.94	 939.7340	 
-12.87	 42.94	 939.8900	 
-12.87	 42.94	 940.0309	 
-12.87	 42.94	 940.1869	 
-12.87	 42.94	 940.3280	 
-12.87	 42.94	 940.4999	 
-12.87	 42.94	 940.6400	 
-12.87	 42.94	 940.7970	 
-12.87	 42.94	 940.9369	 
-12.87	 42.94	 941.0929	 
-12.87	 42.94	 941.2340	 
-12.87	 42.94	 941.3900	 
-12.87	 42.94	 941.5309	 
-12.87	 42.94	 941.7030	 
-12.87	 42.94	 941.8429	 
-12.87	 42.94	 942.0150	 
-12.87	 42.94	 942.1559	 
-12.87	 42.94	 942.3280	 
-12.87	 42.94	 942.4679	 
-12.87	 42.94	 942.6249	 
-12.87	 42.94	 942.7650	 
-12.87	 42.94	 942.9220	 
-12.87	 42.94	 943.0619	 
-12.87	 42.94	 943.2340	 
-12.87	 42.94	 943.3749	 
-12.87	 42.94	 943.5470	 
-12.87	 42.94	 943.6869	 
-12.87	 42.94	 943.8429	 
-12.87	 42.94	 943.9840	 
-12.87	 42.94	 944.1559	 
-12.87	 42.94	 944.2970	 
-12.87	 42.94	 944.4679	 
-12.87	 42.94	 944.6090	 
-12.87	 42.94	 944.7809	 
-12.87	 42.94	 944.9220	 
-12.87	 42.94	 945.0929	 
-12.87	 42.94	 945.2340	 
-12.87	 42.94	 945.3900	 
-12.87	 42.94	 945.5309	 
-12.87	 42.94	 945.6869	 
-12.87	 42.94	 945.8280	 
-12.87	 42.94	 945.9999	 
-12.87	 42.94	 946.1400	 
-12.87	 42.94	 946.2970	 
-12.87	 42.94	 946.4369	 
-12.87	 42.94	 946.5929	 
-12.87	 42.94	 946.7340	 
-12.87	 42.94	 946.8900	 
-12.87	 42.94	 947.0309	 
-12.87	 42.94	 947.2030	 
-12.87	 42.94	 947.3429	 
-12.87	 42.94	 947.5150	 
-12.87	 42.94	 947.6559	 
-12.87	 42.94	 947.8280	 
-12.87	 42.94	 947.9679	 
-12.87	 42.94	 948.1400	 
-12.87	 42.94	 948.2809	 
-12.87	 42.94	 948.4530	 
-12.87	 42.94	 948.5929	 
-12.87	 42.94	 948.7499	 
-12.87	 42.94	 948.8900	 
-12.87	 42.94	 949.0470	 
-12.87	 42.94	 949.1869	 
-12.87	 42.94	 949.3429	 
-12.87	 42.94	 949.4840	 
-12.87	 42.94	 949.6400	 
-12.87	 42.94	 949.7809	 
-12.87	 42.94	 949.9530	 
-12.87	 42.94	 950.0929	 
-12.87	 42.94	 950.2650	 
-12.87	 42.94	 950.4059	 
-12.87	 42.94	 950.5619	 
-12.87	 42.94	 950.7030	 
-12.87	 42.94	 950.8590	 
-12.87	 42.94	 950.9999	 
-12.87	 42.94	 951.1559	 
-12.87	 42.94	 951.2970	 
-12.87	 42.94	 951.4679	 
-12.87	 42.94	 951.6090	 
-12.87	 42.94	 951.7650	 
-12.87	 42.94	 951.9059	 
-12.87	 42.94	 952.0619	 
-12.87	 42.94	 952.2030	 
-12.87	 42.94	 952.3590	 
-12.87	 42.94	 952.4999	 
-12.87	 42.94	 952.6720	 
-12.87	 42.94	 952.8119	 
-12.87	 42.94	 952.9840	 
-12.87	 42.94	 953.1249	 
-12.87	 42.94	 953.2970	 
-12.87	 42.94	 953.4369	 
-12.87	 42.94	 953.5929	 
-12.87	 42.94	 953.7340	 
-12.87	 42.94	 953.8900	 
-12.87	 42.94	 954.0309	 
-12.87	 42.94	 954.2030	 
-12.87	 42.94	 954.3429	 
-12.87	 42.94	 954.5150	 
-12.87	 42.94	 954.6559	 
-12.87	 42.94	 954.8280	 
-12.87	 42.94	 954.9679	 
-12.87	 42.94	 955.1400	 
-12.87	 42.94	 955.2809	 
-12.87	 42.94	 955.4530	 
-12.87	 42.94	 955.5929	 
-12.87	 42.94	 955.7499	 
-12.87	 42.94	 955.8900	 
-12.87	 42.94	 956.0470	 
-12.87	 42.94	 956.1869	 
-12.87	 42.94	 956.3429	 
-12.87	 42.94	 956.4840	 
-12.87	 42.94	 956.6400	 
-12.87	 42.94	 956.7809	 
-12.87	 42.94	 956.9530	 
-12.87	 42.94	 957.0929	 
-12.87	 42.94	 957.2650	 
-12.87	 42.94	 957.4059	 
-12.87	 42.94	 957.5780	 
-12.87	 42.94	 957.7179	 
-12.87	 42.94	 957.8900	 
-12.87	 42.94	 958.0309	 
-12.87	 42.94	 958.2030	 
-12.87	 42.94	 958.3590	 
-12.87	 42.94	 958.5150	 
-12.87	 42.94	 958.6559	 
-12.87	 42.94	 958.8119	 
-12.87	 42.94	 958.9530	 
-12.87	 42.94	 959.1090	 
-12.87	 42.94	 959.2499	 
-12.87	 42.94	 959.4059	 
-12.87	 42.94	 959.5470	 
-12.87	 42.94	 959.7030	 
-12.87	 42.94	 959.8429	 
-12.87	 42.94	 960.0150	 
-12.87	 42.94	 960.1559	 
-12.87	 42.94	 960.3280	 
-12.87	 42.94	 960.4679	 
-12.87	 42.94	 960.6400	 
-12.87	 42.94	 960.7809	 
-12.87	 42.94	 960.9530	 
-12.87	 42.94	 961.0929	 
-12.87	 42.94	 961.2650	 
-12.87	 42.94	 961.4059	 
-12.87	 42.94	 961.5780	 
-12.87	 42.94	 961.7179	 
-12.87	 42.94	 961.8749	 
-12.87	 42.94	 962.0150	 
-12.87	 42.94	 962.1720	 
-12.87	 42.94	 962.3119	 
-12.87	 42.94	 962.4679	 
-12.87	 42.94	 962.6090	 
-12.87	 42.94	 962.7650	 
-12.87	 42.94	 962.9059	 
-12.87	 42.94	 963.0780	 
-12.87	 42.94	 963.2179	 
-12.87	 42.94	 963.3900	 
-12.87	 42.94	 963.5309	 
-12.87	 42.94	 963.6869	 
-12.87	 42.94	 963.8280	 
-12.87	 42.94	 963.9999	 
-12.87	 42.94	 964.1400	 
-12.87	 42.94	 964.2970	 
-12.87	 42.94	 964.4369	 
-12.87	 42.94	 964.5929	 
-12.87	 42.94	 964.7340	 
-12.87	 42.94	 964.8900	 
-12.87	 42.94	 965.0309	 
-12.87	 42.94	 965.1869	 
-12.87	 42.94	 965.3280	 
-12.87	 42.94	 965.4840	 
-12.87	 42.94	 965.6249	 
-12.87	 42.94	 965.7970	 
-12.87	 42.94	 965.9369	 
-12.87	 42.94	 966.0929	 
-12.87	 42.94	 966.2340	 
-12.87	 42.94	 966.3900	 
-12.87	 42.94	 966.5309	 
-12.87	 42.94	 966.6869	 
-12.87	 42.94	 966.8280	 
-12.87	 42.94	 966.9840	 
-12.87	 42.94	 967.1249	 
-12.87	 42.94	 967.2809	 
-12.87	 42.94	 967.4220	 
-12.87	 42.94	 967.5929	 
-12.87	 42.94	 967.7340	 
-12.87	 42.94	 967.8900	 
-12.87	 42.94	 968.0309	 
-12.87	 42.94	 968.1869	 
-12.87	 42.94	 968.3280	 
-12.87	 42.94	 968.4999	 
-12.87	 42.94	 968.6400	 
-12.87	 42.94	 968.7970	 
-12.87	 42.94	 968.9369	 
-12.87	 42.94	 969.0929	 
-12.87	 42.94	 969.2340	 
-12.87	 42.94	 969.3900	 
-12.87	 42.94	 969.5309	 
-12.87	 42.94	 969.7030	 
-12.87	 42.94	 969.8429	 
-12.87	 42.94	 970.0150	 
-12.87	 42.94	 970.1559	 
-12.87	 42.94	 970.3280	 
-12.87	 42.94	 970.4679	 
-12.87	 42.94	 970.6249	 
-12.87	 42.94	 970.7650	 
-12.87	 42.94	 970.9220	 
-12.87	 42.94	 971.0619	 
-12.87	 42.94	 971.2179	 
-12.87	 42.94	 971.3590	 
-12.87	 42.94	 971.5150	 
-12.87	 42.94	 971.6559	 
-12.87	 42.94	 971.8280	 
-12.87	 42.94	 971.9679	 
-12.87	 42.94	 972.1400	 
-12.87	 42.94	 972.2809	 
-12.87	 42.94	 972.4530	 
-12.87	 42.94	 972.5929	 
-12.87	 42.94	 972.7650	 
-12.87	 42.94	 972.9059	 
-12.87	 42.94	 973.0780	 
-12.87	 42.94	 973.2499	 
-12.87	 42.94	 973.3900	 
-12.87	 42.94	 973.5309	 
-12.87	 42.94	 973.6869	 
-12.87	 42.94	 973.8280	 
-12.87	 42.94	 973.9840	 
-12.87	 42.94	 974.1249	 
-12.87	 42.94	 974.2809	 
-12.87	 42.94	 974.4220	 
-12.87	 42.94	 974.5780	 
-12.87	 42.94	 974.7179	 
-12.87	 42.94	 974.8749	 
-12.87	 42.94	 975.0150	 
-12.87	 42.94	 975.1720	 
-12.87	 42.94	 975.3119	 
-12.87	 42.94	 975.4679	 
-12.87	 42.94	 975.6090	 
-12.87	 42.94	 975.7650	 
-12.87	 42.94	 975.9059	 
-12.87	 42.94	 976.0780	 
-12.87	 42.94	 976.2179	 
-12.87	 42.94	 976.3900	 
-12.87	 42.94	 976.5309	 
-12.87	 42.94	 976.7030	 
-12.87	 42.94	 976.8429	 
-12.87	 42.94	 977.0150	 
-12.87	 42.94	 977.1559	 
-12.87	 42.94	 977.3280	 
-12.87	 42.94	 977.4999	 
-12.87	 42.94	 977.6400	 
-12.87	 42.94	 977.7809	 
-12.87	 42.94	 977.9369	 
-12.87	 42.94	 978.0780	 
-12.87	 42.94	 978.2340	 
-12.87	 42.94	 978.3749	 
-12.87	 42.94	 978.5309	 
-12.87	 42.94	 978.6720	 
-12.87	 42.94	 978.8280	 
-12.87	 42.94	 978.9679	 
-12.87	 42.94	 979.1400	 
-12.87	 42.94	 979.2809	 
-12.87	 42.94	 979.4530	 
-12.87	 42.94	 979.5929	 
-12.87	 42.94	 979.7650	 
-12.87	 42.94	 979.9059	 
-12.87	 42.94	 980.0780	 
-12.87	 42.94	 980.2179	 
-12.87	 42.94	 980.3900	 
-12.87	 42.94	 980.5309	 
-12.87	 42.94	 980.6869	 
-12.87	 42.94	 980.8280	 
-12.87	 42.94	 980.9999	 
-12.87	 42.94	 981.1400	 
-12.87	 42.94	 981.2970	 
-12.87	 42.94	 981.4369	 
-12.87	 42.94	 981.5929	 
-12.87	 42.94	 981.7340	 
-12.87	 42.94	 981.8900	 
-12.87	 42.94	 982.0309	 
-12.87	 42.94	 982.1869	 
-12.87	 42.94	 982.3280	 
-12.87	 42.94	 982.4999	 
-12.87	 42.94	 982.6400	 
-12.87	 42.94	 982.7970	 
-12.87	 42.94	 982.9369	 
-12.87	 42.94	 983.0929	 
-12.87	 42.94	 983.2340	 
-12.87	 42.94	 983.3900	 
-12.87	 42.94	 983.5309	 
-12.87	 42.94	 983.7030	 
-12.87	 42.94	 983.8429	 
-12.87	 42.94	 984.0150	 
-12.87	 42.94	 984.1559	 
-12.87	 42.94	 984.3280	 
-12.87	 42.94	 984.4679	 
-12.87	 42.94	 984.6249	 
-12.87	 42.94	 984.7650	 
-12.87	 42.94	 984.9220	 
-12.87	 42.94	 985.0619	 
-12.87	 42.94	 985.2179	 
-12.87	 42.94	 985.3590	 
-12.87	 42.94	 985.5150	 
-12.87	 42.94	 985.6559	 
-12.87	 42.94	 985.8119	 
-12.87	 42.94	 985.9530	 
-12.87	 42.94	 986.1090	 
-12.87	 42.94	 986.2499	 
-12.87	 42.94	 986.4059	 
-12.87	 42.94	 986.5470	 
-12.87	 42.94	 986.7030	 
-12.87	 42.94	 986.8429	 
-12.87	 42.94	 986.9999	 
-12.87	 42.94	 987.1400	 
-12.87	 42.94	 987.2970	 
-12.87	 42.94	 987.4369	 
-12.87	 42.94	 987.5929	 
-12.87	 42.94	 987.7340	 
-12.87	 42.94	 987.8900	 
-12.87	 42.94	 988.0309	 
-12.87	 42.94	 988.2030	 
-12.87	 42.94	 988.3429	 
-12.87	 42.94	 988.5150	 
-12.87	 42.94	 988.6559	 
-12.87	 42.94	 988.8280	 
-12.87	 42.94	 988.9679	 
-12.87	 42.94	 989.1400	 
-12.87	 42.94	 989.2809	 
-12.87	 42.94	 989.4369	 
-12.87	 42.94	 989.5780	 
-12.87	 42.94	 989.7499	 
-12.87	 42.94	 989.8900	 
-12.87	 42.94	 990.0470	 
-12.87	 42.94	 990.1869	 
-12.87	 42.94	 990.3429	 
-12.87	 42.94	 990.4840	 
-12.87	 42.94	 990.6400	 
-12.87	 42.94	 990.7809	 
-12.87	 42.94	 990.9530	 
-12.87	 42.94	 991.0929	 
-12.87	 42.94	 991.2650	 
-12.87	 42.94	 991.4059	 
-12.87	 42.94	 991.5619	 
-12.87	 42.94	 991.7030	 
-12.87	 42.94	 991.8749	 
-12.87	 42.94	 992.0150	 
-12.87	 42.94	 992.1720	 
-12.87	 42.94	 992.3119	 
-12.87	 42.94	 992.4679	 
-12.87	 42.94	 992.6090	 
-12.87	 42.94	 992.7650	 
-12.87	 42.94	 992.9059	 
-12.87	 42.94	 993.0780	 
-12.87	 42.94	 993.2179	 
-12.87	 42.94	 993.3749	 
-12.87	 42.94	 993.5150	 
-12.87	 42.94	 993.6720	 
-12.87	 42.94	 993.8119	 
-12.87	 42.94	 993.9679	 
-12.87	 42.94	 994.1090	 
-12.87	 42.94	 994.2650	 
-12.87	 42.94	 994.4059	 
-12.87	 42.94	 994.5619	 
-12.87	 42.94	 994.7030	 
-12.87	 42.94	 994.8749	 
-12.87	 42.94	 995.0150	 
-12.87	 42.94	 995.1720	 
-12.87	 42.94	 995.3119	 
-12.87	 42.94	 995.4679	 
-12.87	 42.94	 995.6090	 
-12.87	 42.94	 995.7650	 
-12.87	 42.94	 995.9059	 
-12.87	 42.94	 996.0619	 
-12.87	 42.94	 996.2030	 
-12.87	 42.94	 996.3590	 
-12.87	 42.94	 996.4999	 
-12.87	 42.94	 996.6559	 
-12.87	 42.94	 996.7970	 
-12.87	 42.94	 996.9679	 
-12.87	 42.94	 997.1090	 
-12.87	 42.94	 997.2809	 
-12.87	 42.94	 997.4220	 
-12.87	 42.94	 997.5929	 
-12.87	 42.94	 997.7340	 
-12.87	 42.94	 997.8900	 
-12.87	 42.94	 998.0309	 
-12.87	 42.94	 998.1869	 
-12.87	 42.94	 998.3280	 
-12.87	 42.94	 998.4840	 
-12.87	 42.94	 998.6249	 
-12.87	 42.94	 998.7809	 
-12.87	 42.94	 998.9220	 
-12.87	 42.94	 999.0929	 
-12.87	 42.94	 999.2340	 
-12.87	 42.94	 999.3900	 
-12.87	 42.94	 999.5309	 
-12.87	 42.94	 999.6869	 
-12.87	 42.94	 999.8280	 
-12.87	 42.94	 999.9999	 
-12.87	 42.94	 1000.1400	 
-12.87	 42.94	 1000.2970	 
-12.87	 42.94	 1000.4370	 
-12.87	 42.94	 1000.5930	 
-12.87	 42.94	 1000.7340	 
-12.87	 42.94	 1000.8900	 
-12.87	 42.94	 1001.0310	 
-12.87	 42.94	 1001.2030	 
-12.87	 42.94	 1001.3430	 
-12.87	 42.93	 1001.5150	 
-12.87	 42.94	 1001.6560	 
-12.87	 42.94	 1001.8280	 
-12.87	 42.94	 1001.9680	 
-12.87	 42.94	 1002.1250	 
-12.87	 42.94	 1002.2650	 
-12.87	 42.94	 1002.4220	 
-12.87	 42.94	 1002.5620	 
-12.87	 42.94	 1002.7180	 
-12.87	 42.94	 1002.8590	 
-12.87	 42.94	 1003.0150	 
-12.87	 42.94	 1003.1560	 
-12.87	 42.94	 1003.3120	 
-12.87	 42.94	 1003.4530	 
-12.87	 42.94	 1003.6090	 
-12.87	 42.94	 1003.7500	 
-12.87	 42.94	 1003.9220	 
-12.87	 42.94	 1004.0620	 
-12.87	 42.94	 1004.2180	 
-12.87	 42.94	 1004.3590	 
-12.87	 42.94	 1004.5150	 
-12.87	 42.94	 1004.6560	 
-12.87	 42.94	 1004.8280	 
-12.87	 42.94	 1004.9680	 
-12.87	 42.94	 1005.1400	 
-12.87	 42.93	 1005.2810	 
-12.87	 42.94	 1005.4530	 
-12.87	 42.94	 1005.5930	 
-12.87	 42.94	 1005.7650	 
-12.87	 42.94	 1005.9060	 
-12.87	 42.94	 1006.0620	 
-12.87	 42.94	 1006.2030	 
-12.87	 42.94	 1006.3590	 
-12.87	 42.94	 1006.5000	 
-12.87	 42.94	 1006.6720	 
-12.87	 42.94	 1006.8120	 
-12.87	 42.94	 1006.9680	 
-12.87	 42.94	 1007.1090	 
-12.87	 42.94	 1007.2650	 
-12.87	 42.94	 1007.4060	 
-12.87	 42.94	 1007.5620	 
-12.87	 42.94	 1007.7030	 
-12.87	 42.94	 1007.8750	 
-12.87	 42.94	 1008.0150	 
-12.87	 42.94	 1008.1720	 
-12.87	 42.94	 1008.3120	 
-12.87	 42.94	 1008.4680	 
-12.87	 42.94	 1008.6090	 
-12.87	 42.94	 1008.7650	 
-12.87	 42.94	 1008.9060	 
-12.87	 42.94	 1009.0620	 
-12.87	 42.94	 1009.2030	 
-12.87	 42.94	 1009.3750	 
-12.87	 42.94	 1009.5150	 
-12.87	 42.94	 1009.6720	 
-12.87	 42.94	 1009.8120	 
-12.87	 42.94	 1009.9680	 
-12.87	 42.94	 1010.1090	 
-12.87	 42.94	 1010.2650	 
-12.87	 42.94	 1010.4060	 
-12.87	 42.94	 1010.5780	 
-12.87	 42.94	 1010.7180	 
-12.87	 42.94	 1010.8750	 
-12.87	 42.94	 1011.0150	 
-12.87	 42.94	 1011.1720	 
-12.87	 42.94	 1011.3120	 
-12.87	 42.94	 1011.4680	 
-12.87	 42.94	 1011.6090	 
-12.87	 42.94	 1011.7650	 
-12.87	 42.94	 1011.9060	 
-12.87	 42.94	 1012.0620	 
-12.87	 42.94	 1012.2030	 
-12.87	 42.94	 1012.3750	 
-12.87	 42.94	 1012.5150	 
-12.87	 42.94	 1012.6720	 
-12.87	 42.94	 1012.8120	 
-12.87	 42.94	 1012.9680	 
-12.87	 42.94	 1013.1090	 
-12.87	 42.94	 1013.2650	 
-12.87	 42.94	 1013.4060	 
-12.87	 42.94	 1013.5780	 
-12.87	 42.94	 1013.7180	 
-12.87	 42.94	 1013.8900	 
-12.87	 42.94	 1014.0310	 
-12.87	 42.94	 1014.2030	 
-12.87	 42.94	 1014.3430	 
-12.87	 42.94	 1014.5150	 
-12.87	 42.94	 1014.6560	 
-12.87	 42.94	 1014.8120	 
-12.87	 42.94	 1014.9530	 
-12.87	 42.94	 1015.1090	 
-12.87	 42.94	 1015.2500	 
-12.87	 42.94	 1015.4220	 
-12.87	 42.94	 1015.5620	 
-12.87	 42.94	 1015.7180	 
-12.87	 42.94	 1015.8590	 
-12.87	 42.94	 1016.0150	 
-12.87	 42.94	 1016.1560	 
-12.87	 42.94	 1016.3280	 
-12.87	 42.94	 1016.4680	 
-12.87	 42.94	 1016.6400	 
-12.87	 42.94	 1016.7810	 
-12.87	 42.94	 1016.9530	 
-12.87	 42.94	 1017.0930	 
-12.87	 42.94	 1017.2650	 
-12.87	 42.94	 1017.4060	 
-12.87	 42.94	 1017.5780	 
-12.87	 42.94	 1017.7340	 
-12.87	 42.94	 1017.8900	 
-12.87	 42.94	 1018.0310	 
-12.87	 42.94	 1018.1870	 
-12.87	 42.94	 1018.3280	 
-12.87	 42.94	 1018.4680	 
-12.87	 42.94	 1018.6090	 
-12.87	 42.94	 1018.7650	 
-12.87	 42.94	 1018.9060	 
-12.87	 42.94	 1019.0780	 
-12.87	 42.94	 1019.2180	 
-12.87	 42.94	 1019.3900	 
-12.87	 42.94	 1019.5310	 
-12.87	 42.94	 1019.7030	 
-12.87	 42.94	 1019.8750	 
-12.87	 42.94	 1020.0150	 
-12.87	 42.94	 1020.1560	 
-12.87	 42.94	 1020.3280	 
-12.87	 42.94	 1020.4680	 
-12.87	 42.94	 1020.6400	 
-12.87	 42.94	 1020.7810	 
-12.87	 42.94	 1020.9530	 
-12.87	 42.94	 1021.0930	 
-12.87	 42.94	 1021.2650	 
-12.87	 42.94	 1021.4060	 
-12.87	 42.94	 1021.5780	 
-12.87	 42.94	 1021.7180	 
-12.87	 42.93	 1021.8900	 
-12.87	 42.94	 1022.0310	 
-12.87	 42.94	 1022.2030	 
-12.87	 42.94	 1022.3430	 
-12.87	 42.94	 1022.5150	 
-12.87	 42.94	 1022.6560	 
-12.87	 42.94	 1022.8280	 
-12.87	 42.94	 1022.9840	 
-12.87	 42.94	 1023.1400	 
-12.87	 42.93	 1023.2810	 
-12.87	 42.94	 1023.4220	 
-12.87	 42.94	 1023.5620	 
-12.87	 42.94	 1023.7180	 
-12.87	 42.94	 1023.8590	 
-12.87	 42.94	 1024.0150	 
-12.87	 42.94	 1024.1560	 
-12.87	 42.94	 1024.3280	 
-12.87	 42.94	 1024.4680	 
-12.87	 42.94	 1024.6400	 
-12.87	 42.94	 1024.7810	 
-12.87	 42.94	 1024.9530	 
-12.87	 42.93	 1025.1250	 
-12.87	 42.94	 1025.2650	 
-12.87	 42.94	 1025.4060	 
-12.87	 42.94	 1025.5780	 
-12.87	 42.94	 1025.7180	 
-12.87	 42.94	 1025.8900	 
-12.87	 42.94	 1026.0310	 
-12.87	 42.94	 1026.2180	 
-12.87	 42.94	 1026.3590	 
-12.87	 42.94	 1026.5150	 
-12.87	 42.93	 1026.6560	 
-12.87	 42.94	 1026.8280	 
-12.87	 42.94	 1026.9680	 
-12.87	 42.94	 1027.1400	 
-12.87	 42.94	 1027.2810	 
-12.87	 42.94	 1027.4530	 
-12.87	 42.94	 1027.5930	 
-12.87	 42.94	 1027.7650	 
-12.87	 42.94	 1027.9060	 
-12.87	 42.94	 1028.0780	 
-12.87	 42.94	 1028.2500	 
-12.87	 42.94	 1028.3900	 
-12.87	 42.94	 1028.5310	 
-12.87	 42.94	 1028.6870	 
-12.87	 42.94	 1028.8280	 
-12.87	 42.94	 1028.9680	 
-12.87	 42.93	 1029.1090	 
-12.87	 42.94	 1029.2650	 
-12.87	 42.94	 1029.4060	 
-12.87	 42.94	 1029.5620	 
-12.87	 42.94	 1029.7030	 
-12.87	 42.94	 1029.8590	 
-12.87	 42.94	 1030.0000	 
-12.87	 42.94	 1030.1560	 
-12.87	 42.94	 1030.2970	 
-12.87	 42.94	 1030.4530	 
-12.87	 42.94	 1030.5930	 
-12.87	 42.93	 1030.7650	 
-12.87	 42.94	 1030.9060	 
-12.87	 42.94	 1031.0780	 
-12.87	 42.94	 1031.2180	 
-12.87	 42.94	 1031.3900	 
-12.87	 42.94	 1031.5310	 
-12.87	 42.94	 1031.7030	 
-12.87	 42.94	 1031.8430	 
-12.87	 42.94	 1032.0150	 
-12.87	 42.94	 1032.1560	 
-12.87	 42.94	 1032.3120	 
-12.87	 42.94	 1032.4530	 
-12.87	 42.94	 1032.6090	 
-12.87	 42.94	 1032.7500	 
-12.87	 42.94	 1032.9220	 
-12.87	 42.94	 1033.0620	 
-12.87	 42.94	 1033.2180	 
-12.87	 42.94	 1033.3590	 
-12.87	 42.94	 1033.5150	 
-12.87	 42.94	 1033.6560	 
-12.87	 42.93	 1033.8280	 
-12.87	 42.94	 1033.9680	 
-12.87	 42.94	 1034.1400	 
-12.87	 42.94	 1034.2810	 
-12.87	 42.94	 1034.4530	 
-12.87	 42.94	 1034.6090	 
-12.87	 42.94	 1034.7650	 
-12.87	 42.94	 1034.9060	 
-12.87	 42.94	 1035.0780	 
-12.87	 42.94	 1035.2180	 
-12.87	 42.94	 1035.3750	 
-12.87	 42.94	 1035.5150	 
-12.87	 42.93	 1035.6720	 
-12.87	 42.94	 1035.8120	 
-12.87	 42.94	 1035.9680	 
-12.87	 42.94	 1036.1090	 
-12.87	 42.94	 1036.2650	 
-12.87	 42.93	 1036.4060	 
-12.87	 42.94	 1036.5780	 
-12.87	 42.94	 1036.7180	 
-12.87	 42.94	 1036.8750	 
-12.87	 42.94	 1037.0150	 
-12.87	 42.94	 1037.1720	 
-12.87	 42.94	 1037.3120	 
-12.87	 42.94	 1037.4680	 
-12.87	 42.93	 1037.6090	 
-12.87	 42.93	 1037.7650	 
-12.87	 42.94	 1037.9060	 
-12.87	 42.94	 1038.0780	 
-12.87	 42.94	 1038.2180	 
-12.87	 42.94	 1038.3900	 
-12.87	 42.94	 1038.5310	 
-12.87	 42.93	 1038.6870	 
-12.87	 42.94	 1038.8280	 
-12.87	 42.94	 1038.9840	 
-12.87	 42.94	 1039.1250	 
-12.87	 42.94	 1039.2810	 
-12.87	 42.93	 1039.4220	 
-12.87	 42.94	 1039.5930	 
-12.87	 42.94	 1039.7340	 
-12.87	 42.94	 1039.8900	 
-12.87	 42.94	 1040.0310	 
-12.87	 42.94	 1040.1870	 
-12.87	 42.94	 1040.3280	 
-12.87	 42.94	 1040.5000	 
-12.87	 42.93	 1040.6400	 
-12.87	 42.94	 1040.7970	 
-12.87	 42.94	 1040.9370	 
-12.87	 42.94	 1041.0930	 
-12.87	 42.94	 1041.2340	 
-12.87	 42.94	 1041.3900	 
-12.87	 42.94	 1041.5310	 
-12.87	 42.94	 1041.7030	 
-12.87	 42.94	 1041.8430	 
-12.87	 42.94	 1042.0150	 
-12.87	 42.94	 1042.1560	 
-12.87	 42.94	 1042.3280	 
-12.87	 42.94	 1042.4680	 
-12.87	 42.94	 1042.6400	 
-12.87	 42.94	 1042.7810	 
-12.87	 42.94	 1042.9530	 
-12.87	 42.94	 1043.1090	 
-12.87	 42.94	 1043.2650	 
-12.87	 42.94	 1043.4060	 
-12.87	 42.94	 1043.5470	 
-12.87	 42.94	 1043.6870	 
-12.87	 42.93	 1043.8590	 
-12.87	 42.94	 1044.0000	 
-12.87	 42.94	 1044.1560	 
-12.87	 42.94	 1044.2970	 
-12.87	 42.94	 1044.4530	 
-12.87	 42.94	 1044.5930	 
-12.87	 42.94	 1044.7650	 
-12.87	 42.94	 1044.9060	 
-12.87	 42.94	 1045.0780	 
-12.87	 42.94	 1045.2180	 
-12.87	 42.94	 1045.3750	 
-12.87	 42.94	 1045.5150	 
-12.87	 42.94	 1045.6720	 
-12.87	 42.94	 1045.8120	 
-12.87	 42.93	 1045.9680	 
-12.87	 42.94	 1046.1090	 
-12.87	 42.94	 1046.2650	 
-12.87	 42.94	 1046.4060	 
-12.87	 42.94	 1046.5620	 
-12.87	 42.93	 1046.7030	 
-12.87	 42.93	 1046.8590	 
-12.87	 42.94	 1047.0000	 
-12.87	 42.94	 1047.1720	 
-12.87	 42.94	 1047.3120	 
-12.87	 42.94	 1047.4680	 
-12.87	 42.93	 1047.6090	 
-12.87	 42.94	 1047.7650	 
-12.87	 42.94	 1047.9060	 
-12.87	 42.94	 1048.0620	 
-12.87	 42.94	 1048.2030	 
-12.87	 42.93	 1048.3590	 
-12.87	 42.93	 1048.5000	 
-12.87	 42.94	 1048.6720	 
-12.87	 42.94	 1048.8120	 
-12.87	 42.94	 1048.9680	 
-12.87	 42.94	 1049.1090	 
-12.87	 42.94	 1049.2650	 
-12.87	 42.94	 1049.4060	 
-12.87	 42.94	 1049.5620	 
-12.87	 42.93	 1049.7030	 
-12.87	 42.94	 1049.8750	 
-12.87	 42.94	 1050.0150	 
-12.87	 42.93	 1050.1720	 
-12.87	 42.94	 1050.3120	 
-12.87	 42.94	 1050.4680	 
-12.87	 42.94	 1050.6090	 
-12.87	 42.94	 1050.7650	 
-12.87	 42.94	 1050.9060	 
-12.87	 42.93	 1051.0780	 
-12.87	 42.94	 1051.2180	 
-12.87	 42.94	 1051.3900	 
-12.87	 42.94	 1051.5310	 
-12.87	 42.94	 1051.7030	 
-12.87	 42.93	 1051.8430	 
-12.87	 42.94	 1052.0000	 
-12.87	 42.94	 1052.1400	 
-12.87	 42.94	 1052.2970	 
-12.87	 42.93	 1052.4370	 
-12.87	 42.94	 1052.6090	 
-12.87	 42.94	 1052.7500	 
-12.87	 42.94	 1052.9060	 
-12.87	 42.94	 1053.0470	 
-12.87	 42.94	 1053.2030	 
-12.87	 42.93	 1053.3430	 
-12.87	 42.94	 1053.5150	 
-12.87	 42.94	 1053.6560	 
-12.87	 42.94	 1053.8120	 
-12.87	 42.94	 1053.9530	 
-12.87	 42.94	 1054.1250	 
-12.87	 42.94	 1054.2650	 
-12.87	 42.94	 1054.4220	 
-12.87	 42.94	 1054.5620	 
-12.87	 42.94	 1054.7180	 
-12.87	 42.94	 1054.8590	 
-12.87	 42.93	 1055.0150	 
-12.87	 42.94	 1055.1560	 
-12.87	 42.94	 1055.3280	 
-12.87	 42.94	 1055.4680	 
-12.87	 42.93	 1055.6400	 
-12.87	 42.93	 1055.7810	 
-12.87	 42.94	 1055.9370	 
-12.87	 42.94	 1056.0780	 
-12.87	 42.94	 1056.2340	 
-12.87	 42.93	 1056.3750	 
-12.87	 42.94	 1056.5470	 
-12.87	 42.94	 1056.6870	 
-12.87	 42.94	 1056.8430	 
-12.87	 42.94	 1056.9840	 
-12.87	 42.94	 1057.1400	 
-12.87	 42.93	 1057.2810	 
-12.87	 42.94	 1057.4530	 
-12.87	 42.94	 1057.5930	 
-12.87	 42.94	 1057.7650	 
-12.87	 42.94	 1057.9060	 
-12.87	 42.93	 1058.0620	 
-12.87	 42.94	 1058.2030	 
-12.87	 42.94	 1058.3750	 
-12.87	 42.94	 1058.5150	 
-12.87	 42.94	 1058.6720	 
-12.87	 42.93	 1058.8120	 
-12.87	 42.94	 1058.9680	 
-12.87	 42.93	 1059.1090	 
-12.87	 42.94	 1059.2650	 
-12.87	 42.94	 1059.4060	 
-12.87	 42.93	 1059.5620	 
-12.87	 42.93	 1059.7030	 
-12.87	 42.94	 1059.8750	 
-12.87	 42.94	 1060.0150	 
-12.87	 42.94	 1060.1720	 
-12.87	 42.94	 1060.3120	 
-12.87	 42.94	 1060.4840	 
-12.87	 42.94	 1060.6250	 
-12.87	 42.94	 1060.7810	 
-12.87	 42.94	 1060.9220	 
-12.87	 42.94	 1061.0780	 
-12.87	 42.94	 1061.2180	 
-12.87	 42.94	 1061.3900	 
-12.87	 42.94	 1061.5310	 
-12.87	 42.94	 1061.7030	 
-12.87	 42.94	 1061.8430	 
-12.87	 42.94	 1062.0150	 
-12.87	 42.94	 1062.1560	 
-12.87	 42.93	 1062.3120	 
-12.87	 42.94	 1062.4530	 
-12.87	 42.94	 1062.6090	 
-12.87	 42.94	 1062.7500	 
-12.87	 42.93	 1062.9220	 
-12.87	 42.93	 1063.0620	 
-12.87	 42.94	 1063.2180	 
-12.87	 42.94	 1063.3590	 
-12.87	 42.94	 1063.5150	 
-12.87	 42.94	 1063.6560	 
-12.87	 42.93	 1063.8120	 
-12.87	 42.94	 1063.9530	 
-12.87	 42.94	 1064.1250	 
-12.87	 42.94	 1064.2650	 
-12.87	 42.94	 1064.4220	 
-12.87	 42.93	 1064.5620	 
-12.87	 42.94	 1064.7180	 
-12.87	 42.94	 1064.8590	 
-12.87	 42.94	 1065.0150	 
-12.87	 42.94	 1065.1560	 
-12.87	 42.94	 1065.3280	 
-12.87	 42.94	 1065.4680	 
-12.87	 42.94	 1065.6400	 
-12.87	 42.94	 1065.7810	 
-12.87	 42.94	 1065.9530	 
-12.87	 42.94	 1066.0930	 
-12.87	 42.93	 1066.2650	 
-12.87	 42.93	 1066.4060	 
-12.87	 42.94	 1066.5620	 
-12.87	 42.94	 1066.7030	 
-12.87	 42.94	 1066.8590	 
-12.87	 42.94	 1067.0000	 
-12.87	 42.93	 1067.1720	 
-12.87	 42.94	 1067.3120	 
-12.87	 42.94	 1067.4680	 
-12.87	 42.94	 1067.6090	 
-12.87	 42.94	 1067.7650	 
-12.87	 42.93	 1067.9060	 
-12.87	 42.94	 1068.0780	 
-12.87	 42.94	 1068.2180	 
-12.87	 42.93	 1068.3900	 
-12.87	 42.94	 1068.7810	 
-12.87	 42.94	 1068.9370	 
-12.87	 42.93	 1069.0780	 
-12.87	 42.94	 1069.2180	 
-12.87	 42.93	 1069.3590	 
-12.87	 42.93	 1069.5000	 
-12.87	 42.94	 1069.6400	 
-12.87	 42.93	 1069.7970	 
-12.87	 42.94	 1069.9530	 
-12.87	 42.93	 1070.1090	 
-12.87	 42.93	 1070.2500	 
-12.87	 42.94	 1070.3900	 
-12.87	 42.94	 1070.5310	 
-12.87	 42.94	 1070.6870	 
-12.87	 42.94	 1070.8280	 
-12.87	 42.94	 1071.0150	 
-12.87	 42.94	 1071.1560	 
-12.87	 42.94	 1071.3120	 
-12.87	 42.94	 1071.4530	 
-12.87	 42.94	 1071.5930	 
-12.87	 42.94	 1071.7340	 
-12.87	 42.93	 1071.8750	 
-12.87	 42.94	 1072.0150	 
-12.87	 42.94	 1072.1560	 
-12.87	 42.93	 1072.3280	 
-12.87	 42.94	 1072.4680	 
-12.87	 42.94	 1072.6250	 
-12.87	 42.94	 1072.7810	 
-12.87	 42.94	 1072.9530	 
-12.87	 42.94	 1073.0930	 
-12.87	 42.94	 1073.2650	 
-12.87	 42.93	 1073.4060	 
-12.87	 42.94	 1073.5780	 
-12.87	 42.94	 1073.7180	 
-12.87	 42.94	 1073.8750	 
-12.87	 42.94	 1074.0150	 
-12.87	 42.94	 1074.1720	 
-12.87	 42.93	 1074.3120	 
-12.87	 42.94	 1074.4680	 
-12.87	 42.94	 1074.6250	 
-12.87	 42.94	 1074.7650	 
-12.87	 42.94	 1074.9060	 
-12.87	 42.94	 1075.0780	 
-12.87	 42.93	 1075.2340	 
-12.87	 42.94	 1075.3900	 
-12.87	 42.94	 1075.5310	 
-12.87	 42.94	 1075.6870	 
-12.87	 42.93	 1075.8280	 
-12.87	 42.93	 1076.0000	 
-12.87	 42.94	 1076.1400	 
-12.87	 42.94	 1076.2970	 
-12.87	 42.93	 1076.4370	 
-12.87	 42.93	 1076.6090	 
-12.87	 42.94	 1076.7500	 
-12.87	 42.94	 1076.9060	 
-12.87	 42.94	 1077.0470	 
-12.87	 42.94	 1077.2180	 
-12.87	 42.93	 1077.3590	 
-12.87	 42.94	 1077.5150	 
-12.87	 42.94	 1077.6560	 
-12.87	 42.93	 1077.8120	 
-12.87	 42.94	 1077.9530	 
-12.87	 42.94	 1078.1090	 
-12.87	 42.93	 1078.2500	 
-12.87	 42.94	 1078.4220	 
-12.87	 42.94	 1078.5620	 
-12.87	 42.93	 1078.7180	 
-12.87	 42.93	 1078.8590	 
-12.87	 42.94	 1079.0150	 
-12.87	 42.94	 1079.1560	 
-12.87	 42.94	 1079.3280	 
-12.87	 42.94	 1079.4680	 
-12.87	 42.93	 1079.6400	 
-12.87	 42.94	 1079.7810	 
-12.87	 42.94	 1079.9530	 
-12.87	 42.93	 1080.0930	 
-12.87	 42.94	 1080.2650	 
-12.87	 42.93	 1080.4060	 
-12.87	 42.93	 1080.5780	 
-12.87	 42.93	 1080.7340	 
-12.87	 42.94	 1080.8900	 
-12.87	 42.94	 1081.0310	 
-12.87	 42.94	 1081.1870	 
-12.87	 42.93	 1081.3280	 
-12.87	 42.93	 1081.4680	 
-12.87	 42.94	 1081.6090	 
-12.87	 42.94	 1081.7650	 
-12.87	 42.94	 1081.9060	 
-12.87	 42.93	 1082.0620	 
-12.87	 42.93	 1082.2030	 
-12.87	 42.93	 1082.3750	 
-12.87	 42.94	 1082.5150	 
-12.87	 42.94	 1082.6720	 
-12.87	 42.93	 1082.8120	 
-12.87	 42.94	 1082.9680	 
-12.87	 42.93	 1083.1090	 
-12.87	 42.94	 1083.2650	 
-12.87	 42.94	 1083.4060	 
-12.87	 42.93	 1083.5780	 
-12.87	 42.93	 1083.7180	 
-12.87	 42.93	 1083.8900	 
-12.87	 42.94	 1084.0310	 
-12.87	 42.93	 1084.2030	 
-12.87	 42.94	 1084.3430	 
-12.87	 42.93	 1084.5150	 
-12.87	 42.94	 1084.6560	 
-12.87	 42.94	 1084.8120	 
-12.87	 42.94	 1084.9530	 
-12.87	 42.93	 1085.1090	 
-12.87	 42.94	 1085.2500	 
-12.87	 42.93	 1085.4220	 
-12.87	 42.93	 1085.5620	 
-12.87	 42.94	 1085.7180	 
-12.87	 42.94	 1085.8590	 
-12.87	 42.93	 1086.0150	 
-12.87	 42.93	 1086.1560	 
-12.87	 42.94	 1086.3280	 
-12.87	 42.93	 1086.4680	 
-12.87	 42.94	 1086.6400	 
-12.87	 42.94	 1086.7810	 
-12.87	 42.93	 1086.9530	 
-12.87	 42.93	 1087.1090	 
-12.87	 42.94	 1087.2650	 
-12.87	 42.94	 1087.4060	 
-12.87	 42.94	 1087.5780	 
-12.87	 42.93	 1087.7180	 
-12.87	 42.93	 1087.8750	 
-12.87	 42.93	 1088.0150	 
-12.87	 42.94	 1088.1720	 
-12.87	 42.93	 1088.3120	 
-12.87	 42.94	 1088.4680	 
-12.87	 42.93	 1088.6090	 
-12.87	 42.93	 1088.7650	 
-12.87	 42.94	 1088.9060	 
-12.87	 42.94	 1089.0780	 
-12.87	 42.94	 1089.2180	 
-12.87	 42.93	 1089.3750	 
-12.87	 42.93	 1089.5150	 
-12.87	 42.94	 1089.6720	 
-12.87	 42.94	 1089.8120	 
-12.87	 42.94	 1089.9680	 
-12.87	 42.94	 1090.1090	 
-12.87	 42.93	 1090.2650	 
-12.87	 42.93	 1090.4060	 
-12.87	 42.93	 1090.5620	 
-12.87	 42.94	 1090.7030	 
-12.87	 42.93	 1090.8750	 
-12.87	 42.93	 1091.0150	 
-12.87	 42.94	 1091.1720	 
-12.87	 42.93	 1091.3120	 
-12.87	 42.94	 1091.5620	 
-12.87	 42.93	 1091.7030	 
-12.87	 42.94	 1091.8430	 
-12.87	 42.94	 1091.9840	 
-12.87	 42.94	 1092.1250	 
-12.87	 42.94	 1092.2650	 
-12.87	 42.93	 1092.4060	 
-12.87	 42.94	 1092.5470	 
-12.87	 42.94	 1092.7180	 
-12.87	 42.94	 1092.8590	 
-12.87	 42.94	 1093.0150	 
-12.87	 42.94	 1093.1560	 
-12.87	 42.93	 1093.3120	 
-12.87	 42.93	 1093.4530	 
-12.87	 42.93	 1093.6090	 
-12.87	 42.94	 1093.7500	 
-12.87	 42.94	 1093.9220	 
-12.87	 42.93	 1094.0620	 
-12.87	 42.93	 1094.2180	 
-12.87	 42.94	 1094.3590	 
-12.87	 42.94	 1094.5150	 
-12.87	 42.94	 1094.6560	 
-12.87	 42.93	 1094.8280	 
-12.87	 42.94	 1094.9680	 
-12.87	 42.93	 1095.1400	 
-12.87	 42.93	 1095.2810	 
-12.87	 42.93	 1095.4530	 
-12.87	 42.94	 1095.6250	 
-12.87	 42.93	 1095.7650	 
-12.87	 42.93	 1095.9060	 
-12.87	 42.93	 1096.0470	 
-12.87	 42.94	 1096.1870	 
-12.87	 42.94	 1096.3590	 
-12.87	 42.93	 1096.5000	 
-12.87	 42.94	 1096.6560	 
-12.87	 42.93	 1096.7970	 
-12.87	 42.94	 1096.9530	 
-12.87	 42.94	 1097.0930	 
-12.87	 42.94	 1097.2650	 
-12.87	 42.94	 1097.4060	 
-12.87	 42.93	 1097.5620	 
-12.87	 42.94	 1097.7030	 
-12.87	 42.94	 1097.8590	 
-12.87	 42.94	 1098.0000	 
-12.87	 42.93	 1098.1560	 
-12.87	 42.93	 1098.2970	 
-12.87	 42.94	 1098.4680	 
-12.87	 42.94	 1098.6090	 
-12.87	 42.94	 1098.7650	 
-12.87	 42.94	 1098.9060	 
-12.87	 42.93	 1099.0780	 
-12.87	 42.94	 1099.2180	 
-12.87	 42.94	 1099.3900	 
-12.87	 42.94	 1099.5310	 
-12.87	 42.93	 1099.6870	 
-12.87	 42.93	 1099.8280	 
-12.87	 42.93	 1100.0000	 
-12.87	 42.93	 1100.1400	 
-12.87	 42.93	 1100.2970	 
-12.87	 42.94	 1100.4370	 
-12.87	 42.93	 1100.5930	 
-12.87	 42.93	 1100.7340	 
-12.87	 42.94	 1100.8900	 
-12.87	 42.94	 1101.0310	 
-12.87	 42.94	 1101.2030	 
-12.87	 42.93	 1101.3430	 
-12.87	 42.93	 1101.5150	 
-12.87	 42.93	 1101.6560	 
-12.87	 42.94	 1101.8280	 
-12.87	 42.93	 1102.0000	 
-12.87	 42.93	 1102.1400	 
-12.87	 42.94	 1102.2810	 
-12.87	 42.93	 1102.4530	 
-12.87	 42.94	 1102.5930	 
-12.87	 42.94	 1102.7500	 
-12.87	 42.93	 1102.8900	 
-12.87	 42.93	 1103.0470	 
-12.87	 42.93	 1103.1870	 
-12.87	 42.93	 1103.3430	 
-12.87	 42.94	 1103.4840	 
-12.87	 42.94	 1103.6400	 
-12.87	 42.93	 1103.7810	 
-12.87	 42.93	 1103.9370	 
-12.87	 42.93	 1104.0780	 
-12.87	 42.94	 1104.2340	 
-12.87	 42.94	 1104.3750	 
-12.87	 42.93	 1104.5310	 
-12.87	 42.93	 1104.6870	 
-12.87	 42.94	 1104.8280	 
-12.87	 42.93	 1104.9680	 
-12.87	 42.94	 1105.1400	 
-12.87	 42.93	 1105.2810	 
-12.87	 42.93	 1105.4530	 
-12.87	 42.94	 1105.5930	 
-12.87	 42.93	 1105.7650	 
-12.87	 42.94	 1105.9060	 
-12.87	 42.93	 1106.0780	 
-12.87	 42.93	 1106.2500	 
-12.87	 42.94	 1106.3900	 
-12.87	 42.94	 1106.5310	 
-12.87	 42.93	 1106.6870	 
-12.87	 42.93	 1106.8280	 
-12.87	 42.93	 1106.9840	 
-12.87	 42.93	 1107.1250	 
-12.87	 42.94	 1107.2970	 
-12.87	 42.94	 1107.4370	 
-12.87	 42.93	 1107.5930	 
-12.87	 42.93	 1107.7340	 
-12.87	 42.93	 1107.8900	 
-12.87	 42.94	 1108.0310	 
-12.87	 42.94	 1108.1870	 
-12.87	 42.93	 1108.3280	 
-12.87	 42.93	 1108.5000	 
-12.87	 42.93	 1108.6400	 
-12.87	 42.94	 1108.7970	 
-12.87	 42.94	 1108.9370	 
-12.87	 42.94	 1109.0930	 
-12.87	 42.93	 1109.2340	 
-12.87	 42.93	 1109.3900	 
-12.87	 42.93	 1109.5310	 
-12.87	 42.93	 1109.7030	 
-12.87	 42.94	 1109.8430	 
-12.87	 42.94	 1110.0150	 
-12.87	 42.93	 1110.1560	 
-12.87	 42.93	 1110.3280	 
